>CIRCUIT DEFINITION
{({R0Q0}{C0}){L0}}

>MODEL PARAMETERS
R0: 46.03885132658684 Ohm | 0
Q0: 0.00023258692260338677 Fs^(n-1) | 1
n0: 0.5871046819433342  | 2
C0: 3.714357890514257e-09 F | 3
L0: 4.750037499304693e-06 H | 4

>STATISTICAL DATA
Number of parameters: 5
Number of frequencies N_f: 181
Degrees of freedom: 357
Observation-to-parameter ratio: 72.4
Proportionally weighted reduced sum of squares S_v: 2028.48

>IMPEDANCE DATA
Frequency (Hz), Re(Z) / Ohm, Im(Z) / Ohm
1, 914.218, -1152.37
1.07978, 882.919, -1106.37
1.16591, 855.542, -1067.23
1.25893, 813.942, -1010.06
1.35936, 781.702, -970.889
1.4678, 754.23, -929.325
1.58489, 724.554, -885.38
1.71133, 691.344, -847.526
1.84785, 664.224, -814.639
1.99526, 640.49, -777.312
2.15443, 610.672, -742.638
2.32631, 587.668, -714.322
2.51189, 564.894, -680.268
2.71227, 539.352, -653.195
2.92864, 519.864, -622.794
3.16228, 496.556, -598.226
3.41455, 478.764, -570.366
3.68694, 458.418, -548.145
3.98107, 441.387, -525.817
4.29866, 420.634, -499.895
4.64159, 403.995, -477.504
5.01187, 388.457, -455.492
5.4117, 373.261, -435.69
5.84341, 358.595, -416.75
6.30957, 344.558, -398.691
6.81292, 331.52, -381.952
7.35642, 317.655, -365.282
7.94328, 304.751, -349.1
8.57696, 293.1, -331.913
9.26119, 281.46, -318.827
10, 270.747, -303.238
10.7978, 261.914, -291.041
11.6591, 252.099, -278.309
12.5893, 241.968, -264.595
13.5936, 233.323, -253.333
14.678, 224.54, -242.646
15.8489, 215.866, -230.014
17.1133, 209.529, -220.937
18.4785, 202.574, -211.618
19.9526, 195.107, -201.829
21.5443, 187.995, -191.854
23.2631, 181.527, -183.363
25.1189, 175.382, -174.121
27.1227, 169.724, -166.773
29.2864, 164.568, -159.076
31.6228, 158.742, -151.077
34.1455, 154.68, -145.512
36.8694, 150.057, -138.576
39.8107, 145.693, -132.54
42.9866, 140.866, -125.909
46.4159, 136.414, -119.823
50.1187, 132.59, -114.346
54.117, 129.21, -109.731
58.4341, 125.657, -104.753
63.0957, 122.134, -99.5659
68.1292, 118.887, -95.1946
73.5642, 116.333, -91.6902
79.4328, 113.363, -87.4109
85.7696, 110.563, -83.4223
92.6119, 108.92, -80.4352
100, 105.25, -76.284
107.978, 102.586, -72.6086
116.591, 100.582, -69.9669
125.893, 97.9713, -66.4848
135.936, 95.9453, -63.6786
146.78, 93.9249, -60.9129
158.489, 92.0391, -58.5234
171.133, 89.7824, -55.3623
184.785, 88.3182, -53.5051
199.526, 86.2822, -50.8355
215.443, 84.6397, -48.665
232.631, 83.1469, -46.7121
251.189, 81.3097, -44.2949
271.227, 80.1308, -42.7239
292.864, 78.6021, -40.7754
316.228, 77.3797, -39.1607
341.455, 76.1126, -37.5488
368.695, 74.784, -35.8493
398.107, 73.4695, -34.1199
429.866, 72.4715, -32.8404
464.159, 71.2271, -31.258
501.187, 70.1753, -29.9125
541.17, 69.3317, -28.8409
584.341, 68.2318, -27.4728
630.957, 67.3867, -26.4096
681.292, 66.5386, -25.3336
735.642, 65.6988, -24.2434
794.328, 65.0199, -23.188
857.696, 64.5824, -22.4307
926.119, 63.1725, -21.1777
1000, 62.4519, -20.2915
1079.78, 61.893, -19.6215
1165.91, 61.0997, -18.6624
1258.93, 60.5146, -17.9737
1359.36, 59.8878, -17.2078
1467.8, 59.3021, -16.5086
1584.89, 58.6961, -15.8044
1711.33, 58.1631, -15.1756
1847.85, 57.6795, -14.6143
1995.26, 57.0522, -13.8708
2154.43, 56.6867, -13.4524
2326.31, 56.1096, -12.7735
2511.89, 55.7417, -12.3353
2712.27, 55.3093, -11.8299
2928.64, 54.8268, -11.2909
3162.28, 54.4204, -10.7871
3414.55, 54.0544, -10.3763
3686.95, 53.6888, -9.985
3981.07, 53.3559, -9.60607
4298.66, 52.992, -9.15497
4641.59, 52.5858, -8.69346
5011.87, 52.3338, -8.4043
5411.7, 52.0128, -8.02365
5843.41, 51.7181, -7.6499
6309.57, 51.4655, -7.33756
6812.92, 51.2071, -7.06225
7356.42, 50.9508, -6.72582
7943.28, 50.7025, -6.45471
8576.96, 50.4241, -6.1075
9261.19, 50.1901, -5.80526
10000, 49.9807, -5.53633
10797.8, 49.694, -5.4844
11659.1, 49.4452, -5.21627
12589.3, 49.2574, -4.98481
13593.6, 49.0846, -4.78972
14678, 48.922, -4.57821
15848.9, 48.7734, -4.38605
17113.3, 48.6108, -4.1626
18478.5, 48.4209, -3.9923
19952.6, 48.3136, -3.79113
21544.3, 48.1621, -3.57489
23263.1, 48.0121, -3.44297
25118.9, 47.9324, -3.21385
27122.7, 47.7625, -3.07104
29286.4, 47.6771, -2.8814
31622.8, 47.563, -2.73531
34145.5, 47.4426, -2.55744
36869.4, 47.3637, -2.38381
39810.7, 47.2714, -2.20884
42986.6, 47.1873, -2.06837
46415.9, 47.1172, -1.94686
50118.7, 47.0068, -1.79197
54117, 46.9339, -1.59982
58434.1, 46.8091, -1.48879
63095.7, 46.784, -1.32756
68129.2, 46.6727, -1.20931
73564.2, 46.6461, -1.07292
79432.8, 46.5738, -0.916869
85769.6, 46.4997, -0.844598
92611.9, 46.4162, -0.656308
100000, 47.4347, -0.429471
107978, 46.3411, -0.584668
116591, 46.0498, -0.455578
125893, 45.9561, -0.349049
135936, 45.844, -0.274528
146780, 45.8337, -0.188682
158489, 45.7159, -0.00504135
171133, 45.8048, -0.0159722
184785, 45.8971, -1.37519
199526, 44.9747, -1.44743
215443, 44.8524, -1.4448
232630, 44.4524, -1.50677
251189, 43.9121, -1.43083
271227, 43.4522, -1.40824
292864, 42.8142, -1.73059
316228, 44.5318, -3.07743
341455, 44.2169, -3.45314
368694, 43.7659, -3.90147
398107, 43.1701, -4.53783
429866, 39.922, -3.98237
464159, 41.706, -5.43447
501187, 40.293, -6.24925
541170, 38.5224, -6.64077
584341, 36.3462, -7.6115
630957, 33.3657, -8.02371
681292, 29.2691, -7.60502
735642, 24.7454, -6.10752
794328, 20.2508, -2.95588
857696, 16.2004, 1.25145
926119, 12.7357, 5.63189
1e+06, 8.33907, 11.5614

>IMPEDANCE FIT
Frequency (Hz), Re(Z) / Ohm, Im(Z) / Ohm
1, 928.81, -1164.73
1.02807, 914.576, -1145.95
1.05693, 900.572, -1127.47
1.08661, 886.793, -1109.29
1.11711, 873.237, -1091.41
1.14847, 859.899, -1073.81
1.18071, 846.776, -1056.5
1.21386, 833.865, -1039.46
1.24794, 821.162, -1022.7
1.28297, 808.664, -1006.21
1.31899, 796.367, -989.988
1.35602, 784.269, -974.026
1.39408, 772.365, -958.321
1.43322, 760.654, -942.87
1.47345, 749.131, -927.667
1.51482, 737.794, -912.71
1.55734, 726.64, -897.994
1.60106, 715.666, -883.515
1.64601, 704.869, -869.27
1.69222, 694.246, -855.254
1.73973, 683.794, -841.464
1.78857, 673.51, -827.897
1.83878, 663.393, -814.548
1.8904, 653.438, -801.415
1.94347, 643.644, -788.493
1.99803, 634.008, -775.78
2.05412, 624.528, -763.272
2.11178, 615.2, -750.965
2.17107, 606.023, -738.857
2.23202, 596.993, -726.944
2.29468, 588.109, -715.223
2.3591, 579.369, -703.691
2.42532, 570.769, -692.345
2.49341, 562.308, -681.182
2.56341, 553.984, -670.199
2.63537, 545.793, -659.393
2.70935, 537.735, -648.762
2.78541, 529.806, -638.301
2.86361, 522.006, -628.01
2.944, 514.331, -617.884
3.02665, 506.78, -607.922
3.11162, 499.351, -598.12
3.19897, 492.041, -588.476
3.28877, 484.85, -578.988
3.3811, 477.774, -569.652
3.47602, 470.812, -560.468
3.5736, 463.963, -551.431
3.67392, 457.224, -542.54
3.77706, 450.594, -533.792
3.8831, 444.071, -525.186
3.99211, 437.652, -516.718
4.10418, 431.338, -508.387
4.2194, 425.125, -500.19
4.33785, 419.012, -492.125
4.45963, 412.998, -484.19
4.58482, 407.081, -476.383
4.71353, 401.259, -468.702
4.84586, 395.531, -461.145
4.9819, 389.896, -453.71
5.12176, 384.351, -446.395
5.26554, 378.896, -439.197
5.41336, 373.528, -432.116
5.56533, 368.247, -425.149
5.72157, 363.052, -418.294
5.88219, 357.94, -411.55
6.04732, 352.91, -404.914
6.21709, 347.962, -398.385
6.39162, 343.094, -391.962
6.57106, 338.303, -385.642
6.75553, 333.591, -379.424
6.94518, 328.954, -373.307
7.14015, 324.392, -367.288
7.3406, 319.903, -361.366
7.54667, 315.487, -355.54
7.75853, 311.142, -349.807
7.97634, 306.867, -344.167
8.20026, 302.661, -338.618
8.43047, 298.523, -333.158
8.66714, 294.451, -327.787
8.91045, 290.446, -322.502
9.1606, 286.504, -317.302
9.41777, 282.627, -312.186
9.68215, 278.812, -307.152
9.95396, 275.058, -302.2
10.2334, 271.365, -297.328
10.5207, 267.731, -292.534
10.816, 264.156, -287.817
11.1197, 260.639, -283.177
11.4318, 257.178, -278.611
11.7528, 253.774, -274.119
12.0827, 250.424, -269.699
12.4219, 247.128, -265.351
12.7706, 243.885, -261.072
13.1291, 240.694, -256.863
13.4977, 237.555, -252.722
13.8766, 234.467, -248.647
14.2662, 231.428, -244.638
14.6667, 228.439, -240.694
15.0785, 225.497, -236.813
15.5018, 222.603, -232.995
15.9369, 219.756, -229.238
16.3843, 216.954, -225.542
16.8443, 214.198, -221.906
17.3172, 211.486, -218.328
17.8033, 208.818, -214.808
18.3031, 206.193, -211.344
18.8169, 203.61, -207.937
19.3452, 201.069, -204.584
19.8883, 198.569, -201.286
20.4466, 196.109, -198.041
21.0206, 193.689, -194.848
21.6107, 191.308, -191.706
22.2174, 188.965, -188.615
22.8411, 186.66, -185.574
23.4823, 184.392, -182.582
24.1416, 182.161, -179.639
24.8193, 179.965, -176.742
25.5161, 177.805, -173.893
26.2324, 175.68, -171.089
26.9688, 173.589, -168.331
27.7259, 171.532, -165.617
28.5043, 169.508, -162.947
29.3045, 167.517, -160.32
30.1271, 165.558, -157.735
30.9729, 163.63, -155.192
31.8424, 161.734, -152.69
32.7363, 159.868, -150.228
33.6553, 158.032, -147.806
34.6002, 156.225, -145.423
35.5715, 154.448, -143.078
36.5701, 152.7, -140.772
37.5967, 150.979, -138.502
38.6522, 149.287, -136.269
39.7373, 147.621, -134.072
40.8529, 145.983, -131.911
41.9997, 144.371, -129.784
43.1788, 142.785, -127.692
44.391, 141.224, -125.633
45.6372, 139.689, -123.608
46.9183, 138.179, -121.615
48.2355, 136.692, -119.654
49.5896, 135.23, -117.725
50.9818, 133.791, -115.827
52.413, 132.376, -113.96
53.8844, 130.983, -112.123
55.3971, 129.613, -110.315
56.9523, 128.265, -108.537
58.5511, 126.938, -106.787
60.1948, 125.633, -105.066
61.8847, 124.349, -103.372
63.622, 123.086, -101.706
65.4081, 121.843, -100.066
67.2443, 120.62, -98.4528
69.132, 119.417, -96.8657
71.0728, 118.233, -95.3042
73.068, 117.069, -93.7678
75.1193, 115.923, -92.2563
77.2281, 114.795, -90.7691
79.3962, 113.686, -89.3059
81.6251, 112.595, -87.8663
83.9166, 111.521, -86.4499
86.2724, 110.464, -85.0564
88.6943, 109.425, -83.6853
91.1843, 108.402, -82.3364
93.7441, 107.396, -81.0092
96.3758, 106.406, -79.7034
99.0814, 105.432, -78.4186
101.863, 104.474, -77.1546
104.723, 103.531, -75.911
107.662, 102.603, -74.6875
110.685, 101.691, -73.4836
113.792, 100.793, -72.2992
116.987, 99.909, -71.1339
120.271, 99.0397, -69.9874
123.647, 98.1844, -68.8594
127.118, 97.3429, -67.7495
130.687, 96.5149, -66.6576
134.356, 95.7003, -65.5833
138.128, 94.8989, -64.5263
142.005, 94.1103, -63.4864
145.992, 93.3345, -62.4632
150.09, 92.5711, -61.4566
154.304, 91.8201, -60.4662
158.636, 91.0812, -59.4918
163.089, 90.3542, -58.533
167.668, 89.6388, -57.5898
172.374, 88.9351, -56.6618
177.214, 88.2426, -55.7487
182.189, 87.5614, -54.8504
187.303, 86.8911, -53.9666
192.561, 86.2316, -53.097
197.967, 85.5827, -52.2415
203.525, 84.9443, -51.3997
209.238, 84.3162, -50.5716
215.112, 83.6982, -49.7568
221.151, 83.0901, -48.9551
227.36, 82.4919, -48.1664
233.742, 81.9033, -47.3904
240.304, 81.3241, -46.627
247.05, 80.7543, -45.8759
253.986, 80.1937, -45.1368
261.116, 79.6422, -44.4098
268.446, 79.0995, -43.6944
275.983, 78.5655, -42.9906
283.73, 78.0402, -42.2982
291.696, 77.5233, -41.6169
299.884, 77.0147, -40.9466
308.303, 76.5143, -40.2872
316.958, 76.022, -39.6384
325.856, 75.5377, -39.0001
335.004, 75.0611, -38.3721
344.409, 74.5922, -37.7542
354.077, 74.1308, -37.1463
364.017, 73.6769, -36.5482
374.237, 73.2303, -35.9598
384.743, 72.7909, -35.3809
395.544, 72.3586, -34.8113
406.648, 71.9332, -34.2509
418.064, 71.5147, -33.6996
429.8, 71.1029, -33.1572
441.866, 70.6977, -32.6235
454.271, 70.2991, -32.0985
467.023, 69.9069, -31.582
480.134, 69.521, -31.0738
493.613, 69.1413, -30.5738
507.471, 68.7678, -30.0819
521.717, 68.4002, -29.5979
536.363, 68.0386, -29.1218
551.421, 67.6827, -28.6534
566.901, 67.3326, -28.1925
582.815, 66.9882, -27.7391
599.177, 66.6493, -27.293
615.998, 66.3158, -26.8542
633.291, 65.9877, -26.4224
651.069, 65.6649, -25.9977
669.347, 65.3473, -25.5798
688.138, 65.0348, -25.1686
707.456, 64.7273, -24.7641
727.317, 64.4247, -24.3662
747.735, 64.1271, -23.9747
768.726, 63.8342, -23.5896
790.307, 63.546, -23.2106
812.493, 63.2625, -22.8379
835.302, 62.9835, -22.4711
858.752, 62.709, -22.1103
882.86, 62.4389, -21.7554
907.645, 62.1732, -21.4062
933.125, 61.9118, -21.0627
959.321, 61.6545, -20.7247
986.252, 61.4014, -20.3922
1013.94, 61.1523, -20.0651
1042.4, 60.9073, -19.7434
1071.67, 60.6661, -19.4268
1101.75, 60.4289, -19.1154
1132.68, 60.1955, -18.809
1164.48, 59.9658, -18.5076
1197.17, 59.7398, -18.2112
1230.78, 59.5174, -17.9195
1265.33, 59.2986, -17.6326
1300.85, 59.0834, -17.3503
1337.37, 58.8715, -17.0727
1374.92, 58.6631, -16.7995
1413.52, 58.458, -16.5308
1453.2, 58.2563, -16.2665
1493.99, 58.0577, -16.0065
1535.93, 57.8623, -15.7508
1579.05, 57.6701, -15.4992
1623.38, 57.481, -15.2517
1668.96, 57.2948, -15.0082
1715.81, 57.1117, -14.7688
1763.98, 56.9315, -14.5332
1813.5, 56.7542, -14.3015
1864.41, 56.5798, -14.0736
1916.75, 56.4081, -13.8494
1970.56, 56.2392, -13.6289
2025.88, 56.0729, -13.412
2082.75, 55.9094, -13.1987
2141.22, 55.7485, -12.9889
2201.33, 55.5901, -12.7825
2263.13, 55.4343, -12.5795
2326.66, 55.2809, -12.3799
2391.98, 55.1301, -12.1835
2459.13, 54.9816, -11.9904
2528.17, 54.8355, -11.8005
2599.14, 54.6917, -11.6137
2672.11, 54.5503, -11.4299
2747.12, 54.4111, -11.2493
2824.24, 54.2741, -11.0716
2903.53, 54.1393, -10.8969
2985.04, 54.0066, -10.725
3068.84, 53.8761, -10.5561
3154.99, 53.7477, -10.3899
3243.56, 53.6212, -10.2265
3334.62, 53.4969, -10.0659
3428.23, 53.3745, -9.90789
3524.47, 53.254, -9.75256
3623.42, 53.1355, -9.59984
3725.14, 53.0188, -9.44968
3829.71, 52.904, -9.30204
3937.23, 52.791, -9.15689
4047.76, 52.6798, -9.0142
4161.39, 52.5704, -8.87391
4278.21, 52.4627, -8.73601
4398.32, 52.3568, -8.60044
4521.79, 52.2525, -8.46719
4648.73, 52.1498, -8.33621
4779.24, 52.0488, -8.20747
4913.41, 51.9494, -8.08093
5051.34, 51.8515, -7.95657
5193.15, 51.7552, -7.83436
5338.94, 51.6604, -7.71425
5488.82, 51.5671, -7.59623
5642.91, 51.4753, -7.48026
5801.32, 51.3849, -7.36632
5964.18, 51.296, -7.25436
6131.62, 51.2084, -7.14438
6303.75, 51.1222, -7.03633
6480.72, 51.0374, -6.93019
6662.65, 50.9539, -6.82594
6849.7, 50.8717, -6.72354
7041.99, 50.7908, -6.62298
7239.68, 50.7111, -6.52423
7442.92, 50.6327, -6.42726
7651.87, 50.5555, -6.33205
7866.68, 50.4796, -6.23858
8087.52, 50.4047, -6.14683
8314.57, 50.3311, -6.05676
8547.98, 50.2586, -5.96837
8787.95, 50.1872, -5.88163
9034.66, 50.1169, -5.79651
9288.29, 50.0477, -5.713
9549.04, 49.9795, -5.63108
9817.12, 49.9124, -5.55073
10092.7, 49.8463, -5.47193
10376.1, 49.7813, -5.39466
10667.3, 49.7172, -5.31891
10966.8, 49.6541, -5.24465
11274.7, 49.5919, -5.17187
11591.2, 49.5307, -5.10055
11916.6, 49.4704, -5.03068
12251.1, 49.4109, -4.96225
12595.1, 49.3524, -4.89522
12948.6, 49.2948, -4.8296
13312.2, 49.238, -4.76537
13685.9, 49.182, -4.70251
14070.1, 49.1269, -4.64101
14465.1, 49.0725, -4.58086
14871.2, 49.019, -4.52204
15288.6, 48.9662, -4.46455
15717.8, 48.9142, -4.40837
16159.1, 48.8629, -4.35349
16612.7, 48.8123, -4.2999
17079.1, 48.7625, -4.24758
17558.6, 48.7133, -4.19654
18051.5, 48.6648, -4.14676
18558.3, 48.617, -4.09823
19079.2, 48.5698, -4.05094
19614.9, 48.5233, -4.00489
20165.5, 48.4774, -3.96007
20731.6, 48.432, -3.91647
21313.6, 48.3873, -3.87408
21912, 48.3432, -3.8329
22527.1, 48.2996, -3.79292
23159.5, 48.2565, -3.75414
23809.7, 48.2139, -3.71655
24478.1, 48.1719, -3.68015
25165.3, 48.1304, -3.64493
25871.7, 48.0893, -3.61089
26598, 48.0487, -3.57803
27344.7, 48.0086, -3.54634
28112.4, 47.9688, -3.51582
28901.6, 47.9295, -3.48647
29713, 47.8906, -3.45829
30547.1, 47.8521, -3.43128
31404.7, 47.8139, -3.40544
32286.3, 47.776, -3.38076
33192.7, 47.7385, -3.35725
34124.5, 47.7013, -3.33491
35082.5, 47.6644, -3.31374
36067.3, 47.6277, -3.29374
37079.9, 47.5913, -3.27492
38120.8, 47.5551, -3.25727
39191, 47.5192, -3.2408
40291.2, 47.4834, -3.22551
41422.3, 47.4477, -3.21141
42585.2, 47.4122, -3.1985
43780.7, 47.3769, -3.18678
45009.8, 47.3416, -3.17627
46273.3, 47.3063, -3.16696
47572.4, 47.2712, -3.15886
48907.9, 47.236, -3.15198
50280.9, 47.2008, -3.14633
51692.4, 47.1656, -3.14191
53143.6, 47.1302, -3.13872
54635.5, 47.0948, -3.13679
56169.3, 47.0593, -3.1361
57746.2, 47.0236, -3.13668
59367.3, 46.9876, -3.13853
61033.9, 46.9514, -3.14167
62747.3, 46.915, -3.14609
64508.8, 46.8782, -3.1518
66319.8, 46.841, -3.15883
68181.6, 46.8035, -3.16717
70095.7, 46.7655, -3.17683
72063.5, 46.727, -3.18783
74086.6, 46.6879, -3.20017
76166.4, 46.6482, -3.21387
78304.7, 46.6079, -3.22893
80502.9, 46.5669, -3.24536
82762.9, 46.5251, -3.26316
85086.3, 46.4825, -3.28236
87475, 46.4389, -3.30294
89930.7, 46.3944, -3.32493
92455.3, 46.3489, -3.34833
95050.8, 46.3022, -3.37314
97719.2, 46.2544, -3.39936
100463, 46.2053, -3.42701
103283, 46.1548, -3.45608
106182, 46.1029, -3.48657
109163, 46.0494, -3.51849
112228, 45.9943, -3.55182
115378, 45.9375, -3.58658
118617, 45.8788, -3.62274
121947, 45.8181, -3.66029
125371, 45.7554, -3.69924
128890, 45.6905, -3.73956
132509, 45.6232, -3.78124
136229, 45.5535, -3.82424
140053, 45.4811, -3.86856
143985, 45.4061, -3.91415
148027, 45.3281, -3.96099
152183, 45.247, -4.00903
156455, 45.1627, -4.05822
160847, 45.0751, -4.10853
165362, 44.9838, -4.15988
170005, 44.8888, -4.21221
174777, 44.7898, -4.26546
179684, 44.6866, -4.31953
184728, 44.5791, -4.37434
189914, 44.4669, -4.42979
195246, 44.35, -4.48576
200727, 44.228, -4.54214
206362, 44.1007, -4.59879
212155, 43.9678, -4.65557
218111, 43.8292, -4.7123
224234, 43.6845, -4.76883
230529, 43.5334, -4.82495
237001, 43.3758, -4.88046
243654, 43.2113, -4.93513
250494, 43.0395, -4.98871
257526, 42.8603, -5.04095
264756, 42.6733, -5.09155
272188, 42.4782, -5.14021
279830, 42.2748, -5.1866
287685, 42.0626, -5.23035
295762, 41.8413, -5.27109
304065, 41.6108, -5.30841
312601, 41.3705, -5.34187
321376, 41.1203, -5.37101
330399, 40.8599, -5.39533
339674, 40.5888, -5.4143
349210, 40.3069, -5.42737
359013, 40.0138, -5.43394
369092, 39.7093, -5.43339
379453, 39.393, -5.42506
390106, 39.0648, -5.40827
401057, 38.7244, -5.38229
412316, 38.3716, -5.34635
423891, 38.0062, -5.29966
435791, 37.6281, -5.24141
448025, 37.2371, -5.17071
460603, 36.8331, -5.0867
473533, 36.4161, -4.98844
486827, 35.986, -4.87499
500494, 35.5427, -4.74537
514544, 35.0865, -4.59858
528989, 34.6173, -4.43359
543840, 34.1353, -4.24937
559107, 33.6407, -4.04485
574803, 33.1337, -3.81897
590940, 32.6146, -3.57064
607529, 32.0838, -3.29878
624584, 31.5416, -3.00231
642119, 30.9884, -2.68013
660145, 30.4249, -2.33118
678677, 29.8514, -1.95439
697730, 29.2687, -1.54872
717317, 28.6774, -1.11314
737455, 28.0782, -0.646653
758158, 27.4718, -0.148283
779442, 26.8589, 0.382905
801323, 26.2405, 0.94781
823819, 25.6174, 1.54729
846946, 24.9905, 2.18217
870722, 24.3606, 2.85322
895166, 23.7287, 3.56117
920297, 23.0957, 4.30668
946132, 22.4626, 5.09039
972693, 21.8303, 5.91288
1e+06, 21.1998, 6.77468