>CIRCUIT DEFINITION
{({R0Q0}{C0}){R1}}

>MODEL PARAMETERS
R0: 45.62216931502837 Ohm | 4
Q0: 0.16607568352526447 Fs^(n-1) | 5
n0: 0.5  | 6
C0: 0.0014507750456980609 F | 7
R1: 26.433944018466278 Ohm | 8

>STATISTICAL DATA
Number of parameters: 5
Number of frequencies N_f: 101
Degrees of freedom: 197
Observation-to-parameter ratio: 40.4
Proportionally weighted reduced sum of squares S_v: 0.0799452

>IMPEDANCE DATA
Frequency (Hz), Re(Z) / Ohm, Im(Z) / Ohm
0.1, 76.5402, -5.21482
0.112202, 77.0936, -7.01787
0.125893, 76.8567, -4.8024
0.141254, 75.9479, -5.14609
0.158489, 77.1702, -7.42831
0.177828, 77.518, -8.08259
0.199526, 76.08, -8.90332
0.223872, 75.0441, -9.75467
0.251189, 74.8787, -8.0462
0.281838, 73.8166, -8.61608
0.316228, 74.2248, -9.99117
0.354813, 74.452, -11.2764
0.398107, 72.3596, -12.3812
0.446684, 71.773, -12.9633
0.501187, 69.038, -13.2246
0.562341, 68.6235, -12.874
0.630957, 68.6848, -13.8382
0.707946, 67.8854, -14.8969
0.794328, 67.4927, -16.7674
0.891251, 66.0693, -16.3853
1, 64.8891, -19.0318
1.12202, 63.7482, -19.0633
1.25893, 61.9888, -20.0683
1.41254, 59.0273, -19.4822
1.58489, 56.5268, -21.7375
1.77828, 54.7067, -21.8328
1.99526, 52.7043, -23.5934
2.23872, 49.6855, -23.0329
2.51189, 48.3513, -22.4034
2.81838, 45.4092, -21.3384
3.16228, 43.5171, -21.7611
3.54813, 41.0272, -20.7781
3.98107, 39.0698, -19.3661
4.46684, 37.2333, -18.9065
5.01187, 35.4256, -17.9133
5.62341, 33.9763, -16.3196
6.30957, 33.2028, -15.1653
7.07946, 32.4136, -13.6153
7.94328, 30.9952, -11.7452
8.91251, 30.1603, -12.572
10, 28.7118, -10.5022
11.2202, 28.5759, -9.00532
12.5893, 27.7302, -8.72882
14.1254, 28.5528, -8.85629
15.8489, 27.2414, -6.95036
17.7828, 27.6308, -5.95974
19.9526, 27.1972, -5.5576
22.3872, 27.42, -5.74419
25.1189, 26.7926, -4.5892
28.1838, 26.8685, -4.07613
31.6228, 26.3086, -4.04638
35.4813, 26.797, -3.51452
39.8107, 26.5432, -3.24993
44.6684, 26.4023, -2.89903
50.1187, 26.6841, -2.48847
56.2341, 26.4187, -2.43217
63.0957, 26.2632, -1.97787
70.7946, 26.519, -1.85575
79.4328, 26.2075, -1.65749
89.1251, 26.5239, -1.47067
100, 26.0804, -1.33739
112.202, 26.3022, -1.1755
125.893, 26.3904, -1.00665
141.254, 26.1221, -0.925213
158.489, 26.0612, -0.831731
177.828, 26.2919, -0.800929
199.526, 26.4117, -0.718603
223.872, 26.0118, -0.624879
251.189, 25.9801, -0.543608
281.838, 26.3902, -0.554251
316.228, 26.4898, -0.472807
354.813, 26.2048, -0.4224
398.107, 26.0263, -0.387744
446.684, 26.0708, -0.332
501.187, 27.0739, -0.356406
562.341, 26.5057, -0.291944
630.957, 26.0377, -0.315085
707.946, 26.3293, -0.25038
794.328, 26.5571, -0.21227
891.251, 26.3547, -0.208005
1000, 26.0825, -0.19826
1122.02, 25.9499, -0.186698
1258.93, 26.2832, -0.185406
1412.54, 26.3922, -0.175983
1584.89, 26.0805, -0.172948
1778.28, 25.9624, -0.148711
1995.26, 25.9284, -0.161025
2238.72, 25.9566, -0.186381
2511.89, 26.4385, -0.289969
2818.38, 26.4704, -0.222872
3162.28, 26.3874, -0.184744
3548.13, 26.1238, -0.125463
3981.07, 26.021, -0.198512
4466.84, 26.0304, -0.252463
5011.87, 26.4301, -0.133738
5623.41, 26.522, -0.189611
6309.57, 26.378, -0.340722
7079.46, 25.9266, -0.23483
7943.28, 26.0938, -0.315968
8912.51, 26.0008, -0.205159
10000, 26.1898, -0.25626

>IMPEDANCE FIT
Frequency (Hz), Re(Z) / Ohm, Im(Z) / Ohm
0.1, 76.824, -7.67612
0.102334, 76.7526, -7.66253
0.104723, 76.6817, -7.65067
0.107167, 76.6112, -7.64058
0.109668, 76.5412, -7.63225
0.112228, 76.4715, -7.6257
0.114847, 76.4021, -7.62096
0.117528, 76.3332, -7.61803
0.120271, 76.2646, -7.61693
0.123078, 76.1962, -7.61768
0.125951, 76.1282, -7.6203
0.12889, 76.0604, -7.62481
0.131899, 75.9929, -7.63122
0.134977, 75.9257, -7.63955
0.138128, 75.8586, -7.64983
0.141352, 75.7917, -7.66207
0.144651, 75.725, -7.6763
0.148027, 75.6584, -7.69253
0.151482, 75.5919, -7.71079
0.155018, 75.5255, -7.7311
0.158636, 75.4592, -7.75349
0.162338, 75.3928, -7.77797
0.166127, 75.3265, -7.80458
0.170005, 75.2602, -7.83333
0.173973, 75.1938, -7.86426
0.178033, 75.1274, -7.89738
0.182189, 75.0608, -7.93273
0.186441, 74.9941, -7.97032
0.190792, 74.9271, -8.0102
0.195246, 74.86, -8.05238
0.199803, 74.7926, -8.0969
0.204466, 74.725, -8.14377
0.209238, 74.657, -8.19304
0.214122, 74.5886, -8.24473
0.21912, 74.5199, -8.29888
0.224234, 74.4507, -8.3555
0.229468, 74.381, -8.41463
0.234823, 74.3108, -8.47631
0.240304, 74.24, -8.54056
0.245913, 74.1685, -8.60742
0.251653, 74.0964, -8.67691
0.257526, 74.0236, -8.74907
0.263537, 73.95, -8.82393
0.269688, 73.8756, -8.90153
0.275983, 73.8002, -8.98188
0.282424, 73.7239, -9.06503
0.289016, 73.6466, -9.15101
0.295762, 73.5683, -9.23985
0.302665, 73.4888, -9.33157
0.309729, 73.408, -9.42622
0.316958, 73.3261, -9.52382
0.324356, 73.2427, -9.62439
0.331927, 73.158, -9.72798
0.339674, 73.0717, -9.83461
0.347602, 72.9839, -9.9443
0.355715, 72.8944, -10.0571
0.364017, 72.8032, -10.173
0.372514, 72.7102, -10.292
0.381208, 72.6152, -10.4143
0.390106, 72.5182, -10.5397
0.399211, 72.4191, -10.6683
0.408529, 72.3178, -10.8001
0.418064, 72.2142, -10.9352
0.427821, 72.1081, -11.0736
0.437807, 71.9996, -11.2152
0.448025, 71.8884, -11.3601
0.458482, 71.7744, -11.5083
0.469183, 71.6576, -11.6597
0.480134, 71.5378, -11.8145
0.491341, 71.4148, -11.9726
0.502809, 71.2886, -12.1339
0.514544, 71.1591, -12.2985
0.526554, 71.026, -12.4664
0.538844, 70.8893, -12.6375
0.551421, 70.7487, -12.8118
0.564291, 70.6043, -12.9893
0.577462, 70.4557, -13.17
0.59094, 70.3029, -13.3538
0.604732, 70.1457, -13.5406
0.618847, 69.984, -13.7304
0.633291, 69.8176, -13.9232
0.648072, 69.6463, -14.1189
0.663198, 69.4699, -14.3174
0.678677, 69.2884, -14.5186
0.694518, 69.1015, -14.7224
0.710728, 68.9091, -14.9288
0.727317, 68.7111, -15.1376
0.744292, 68.5071, -15.3487
0.761664, 68.2971, -15.5619
0.779442, 68.081, -15.7773
0.797634, 67.8585, -15.9945
0.816251, 67.6294, -16.2135
0.835302, 67.3937, -16.434
0.854798, 67.1511, -16.6559
0.87475, 66.9015, -16.879
0.895166, 66.6448, -17.1032
0.91606, 66.3807, -17.3281
0.937441, 66.1093, -17.5535
0.959321, 65.8302, -17.7792
0.981712, 65.5434, -18.0051
1.00463, 65.2489, -18.2307
1.02807, 64.9463, -18.4558
1.05207, 64.6358, -18.6802
1.07662, 64.3171, -18.9035
1.10175, 63.9902, -19.1255
1.12747, 63.655, -19.3457
1.15378, 63.3115, -19.564
1.18071, 62.9597, -19.7799
1.20827, 62.5995, -19.993
1.23647, 62.2309, -20.2032
1.26533, 61.8539, -20.4098
1.29486, 61.4686, -20.6127
1.32509, 61.075, -20.8114
1.35602, 60.6732, -21.0056
1.38766, 60.2632, -21.1948
1.42005, 59.8453, -21.3787
1.4532, 59.4195, -21.5568
1.48712, 58.986, -21.7289
1.52183, 58.545, -21.8944
1.55734, 58.0966, -22.0531
1.59369, 57.6411, -22.2046
1.63089, 57.1789, -22.3484
1.66896, 56.71, -22.4843
1.70791, 56.2349, -22.6118
1.74777, 55.7538, -22.7307
1.78857, 55.2672, -22.8406
1.83031, 54.7753, -22.9412
1.87303, 54.2785, -23.0322
1.91675, 53.7773, -23.1134
1.96149, 53.2721, -23.1845
2.00727, 52.7633, -23.2453
2.05412, 52.2514, -23.2955
2.10206, 51.7368, -23.335
2.15112, 51.22, -23.3637
2.20133, 50.7016, -23.3813
2.25271, 50.1819, -23.3879
2.30529, 49.6616, -23.3833
2.3591, 49.141, -23.3675
2.41416, 48.6209, -23.3405
2.4705, 48.1015, -23.3023
2.52817, 47.5835, -23.2529
2.58717, 47.0674, -23.1924
2.64756, 46.5537, -23.1209
2.70935, 46.0428, -23.0385
2.77259, 45.5353, -22.9455
2.8373, 45.0316, -22.8419
2.90353, 44.5321, -22.728
2.9713, 44.0374, -22.604
3.04065, 43.5478, -22.4701
3.11162, 43.0638, -22.3267
3.18424, 42.5857, -22.174
3.25856, 42.1139, -22.0124
3.33462, 41.6487, -21.8421
3.41245, 41.1906, -21.6635
3.4921, 40.7397, -21.477
3.5736, 40.2964, -21.2829
3.65701, 39.8608, -21.0817
3.74237, 39.4333, -20.8736
3.82971, 39.0141, -20.6591
3.9191, 38.6033, -20.4385
4.01057, 38.2011, -20.2124
4.10418, 37.8076, -19.981
4.19997, 37.4229, -19.7447
4.298, 37.0472, -19.504
4.39832, 36.6804, -19.2593
4.50098, 36.3227, -19.0108
4.60603, 35.974, -18.7591
4.71353, 35.6344, -18.5045
4.82355, 35.3039, -18.2473
4.93613, 34.9824, -17.988
5.05134, 34.6699, -17.7267
5.16924, 34.3663, -17.464
5.28989, 34.0716, -17.2001
5.41336, 33.7857, -16.9353
5.53971, 33.5084, -16.67
5.66901, 33.2396, -16.4043
5.80132, 32.9793, -16.1387
5.93673, 32.7273, -15.8734
6.07529, 32.4834, -15.6085
6.21709, 32.2476, -15.3444
6.3622, 32.0196, -15.0813
6.51069, 31.7993, -14.8195
6.66265, 31.5866, -14.559
6.81816, 31.3812, -14.3001
6.9773, 31.183, -14.043
7.14015, 30.9918, -13.7878
7.3068, 30.8075, -13.5347
7.47735, 30.6298, -13.2839
7.65187, 30.4586, -13.0354
7.83047, 30.2938, -12.7894
8.01323, 30.135, -12.546
8.20026, 29.9822, -12.3054
8.39166, 29.8352, -12.0675
8.58752, 29.6938, -11.8325
8.78795, 29.5578, -11.6005
8.99307, 29.4271, -11.3715
9.20297, 29.3014, -11.1455
9.41777, 29.1807, -10.9227
9.63758, 29.0647, -10.7031
9.86252, 28.9533, -10.4867
10.0927, 28.8464, -10.2735
10.3283, 28.7437, -10.0636
10.5693, 28.6452, -9.85698
10.816, 28.5506, -9.65365
11.0685, 28.4599, -9.45364
11.3268, 28.3729, -9.25693
11.5912, 28.2895, -9.06352
11.8617, 28.2095, -8.87343
12.1386, 28.1328, -8.68662
12.4219, 28.0593, -8.5031
12.7118, 27.9889, -8.32285
13.0085, 27.9214, -8.14585
13.3122, 27.8567, -7.97207
13.6229, 27.7947, -7.8015
13.9408, 27.7354, -7.6341
14.2662, 27.6786, -7.46985
14.5992, 27.6241, -7.30872
14.9399, 27.572, -7.15067
15.2886, 27.5222, -6.99568
15.6455, 27.4744, -6.84371
16.0106, 27.4287, -6.69471
16.3843, 27.3849, -6.54866
16.7668, 27.3431, -6.40551
17.1581, 27.303, -6.26523
17.5586, 27.2647, -6.12777
17.9684, 27.228, -5.9931
18.3878, 27.1929, -5.86117
18.8169, 27.1594, -5.73195
19.2561, 27.1273, -5.60538
19.7056, 27.0965, -5.48143
20.1655, 27.0672, -5.36005
20.6362, 27.0391, -5.24121
21.1178, 27.0122, -5.12486
21.6107, 26.9866, -5.01095
22.1151, 26.962, -4.89945
22.6313, 26.9385, -4.79031
23.1595, 26.9161, -4.68348
23.7001, 26.8946, -4.57894
24.2532, 26.8741, -4.47663
24.8193, 26.8545, -4.37652
25.3986, 26.8357, -4.27856
25.9914, 26.8178, -4.18272
26.598, 26.8007, -4.08894
27.2188, 26.7843, -3.9972
27.8541, 26.7687, -3.90745
28.5043, 26.7537, -3.81966
29.1696, 26.7394, -3.73378
29.8504, 26.7258, -3.64978
30.5471, 26.7127, -3.56762
31.2601, 26.7003, -3.48726
31.9897, 26.6884, -3.40867
32.7363, 26.677, -3.33181
33.5004, 26.6661, -3.25665
34.2823, 26.6557, -3.18314
35.0825, 26.6458, -3.11126
35.9013, 26.6363, -3.04098
36.7392, 26.6272, -2.97225
37.5967, 26.6185, -2.90505
38.4743, 26.6103, -2.83934
39.3723, 26.6024, -2.77509
40.2912, 26.5948, -2.71228
41.2316, 26.5876, -2.65087
42.194, 26.5807, -2.59083
43.1788, 26.5741, -2.53213
44.1866, 26.5678, -2.47474
45.2179, 26.5618, -2.41864
46.2733, 26.5561, -2.36379
47.3533, 26.5506, -2.31018
48.4586, 26.5454, -2.25777
49.5896, 26.5403, -2.20653
50.7471, 26.5356, -2.15645
51.9315, 26.531, -2.10749
53.1436, 26.5266, -2.05964
54.384, 26.5225, -2.01286
55.6533, 26.5185, -1.96714
56.9523, 26.5147, -1.92244
58.2815, 26.5111, -1.87876
59.6418, 26.5076, -1.83606
61.0339, 26.5043, -1.79433
62.4584, 26.5011, -1.75353
63.9162, 26.4981, -1.71366
65.4081, 26.4952, -1.67469
66.9347, 26.4925, -1.6366
68.497, 26.4898, -1.59938
70.0957, 26.4873, -1.56299
71.7317, 26.4849, -1.52743
73.406, 26.4826, -1.49268
75.1193, 26.4804, -1.45871
76.8726, 26.4783, -1.42551
78.6668, 26.4763, -1.39306
80.5029, 26.4744, -1.36135
82.3819, 26.4726, -1.33036
84.3047, 26.4709, -1.30007
86.2724, 26.4692, -1.27047
88.286, 26.4676, -1.24154
90.3466, 26.4661, -1.21327
92.4553, 26.4647, -1.18564
94.6132, 26.4633, -1.15864
96.8215, 26.462, -1.13225
99.0814, 26.4607, -1.10646
101.394, 26.4595, -1.08125
103.761, 26.4583, -1.05662
106.182, 26.4572, -1.03255
108.661, 26.4562, -1.00903
111.197, 26.4552, -0.986037
113.792, 26.4542, -0.963571
116.448, 26.4533, -0.941615
119.166, 26.4524, -0.920158
121.947, 26.4516, -0.89919
124.794, 26.4508, -0.878698
127.706, 26.4501, -0.858673
130.687, 26.4493, -0.839104
133.737, 26.4486, -0.81998
136.859, 26.448, -0.801291
140.053, 26.4473, -0.783027
143.322, 26.4467, -0.76518
146.667, 26.4462, -0.747738
150.09, 26.4456, -0.730694
153.593, 26.4451, -0.714038
157.178, 26.4446, -0.697761
160.847, 26.4441, -0.681855
164.601, 26.4436, -0.666311
168.443, 26.4432, -0.651121
172.374, 26.4428, -0.636277
176.398, 26.4424, -0.621771
180.515, 26.442, -0.607595
184.728, 26.4417, -0.593743
189.04, 26.4413, -0.580206
193.452, 26.441, -0.566977
197.967, 26.4407, -0.55405
202.588, 26.4404, -0.541418
207.316, 26.4401, -0.529073
212.155, 26.4398, -0.51701
217.107, 26.4395, -0.505221
222.174, 26.4393, -0.493701
227.36, 26.439, -0.482444
232.666, 26.4388, -0.471443
238.097, 26.4386, -0.460693
243.654, 26.4384, -0.450188
249.341, 26.4382, -0.439923
255.161, 26.438, -0.429891
261.116, 26.4378, -0.420088
267.211, 26.4376, -0.410509
273.447, 26.4375, -0.401148
279.83, 26.4373, -0.392
286.361, 26.4372, -0.383061
293.045, 26.437, -0.374325
299.884, 26.4369, -0.365789
306.884, 26.4367, -0.357448
314.047, 26.4366, -0.349296
321.376, 26.4365, -0.34133
328.877, 26.4364, -0.333546
336.553, 26.4363, -0.32594
344.409, 26.4362, -0.318507
352.447, 26.4361, -0.311243
360.673, 26.436, -0.304145
369.092, 26.4359, -0.297209
377.706, 26.4358, -0.290431
386.522, 26.4357, -0.283807
395.544, 26.4356, -0.277335
404.776, 26.4356, -0.27101
414.223, 26.4355, -0.26483
423.891, 26.4354, -0.25879
433.785, 26.4353, -0.252888
443.91, 26.4353, -0.24712
454.271, 26.4352, -0.241485
464.873, 26.4352, -0.235977
475.724, 26.4351, -0.230595
486.827, 26.4351, -0.225336
498.19, 26.435, -0.220197
509.818, 26.435, -0.215175
521.717, 26.4349, -0.210268
533.894, 26.4349, -0.205472
546.355, 26.4348, -0.200786
559.107, 26.4348, -0.196207
572.157, 26.4347, -0.191732
585.511, 26.4347, -0.187359
599.177, 26.4347, -0.183086
613.162, 26.4346, -0.17891
627.473, 26.4346, -0.17483
642.119, 26.4346, -0.170843
657.106, 26.4346, -0.166946
672.443, 26.4345, -0.163139
688.138, 26.4345, -0.159418
704.199, 26.4345, -0.155782
720.635, 26.4345, -0.152229
737.455, 26.4344, -0.148757
754.667, 26.4344, -0.145364
772.281, 26.4344, -0.142049
790.307, 26.4344, -0.138809
808.752, 26.4343, -0.135643
827.629, 26.4343, -0.13255
846.946, 26.4343, -0.129527
866.714, 26.4343, -0.126573
886.943, 26.4343, -0.123686
907.645, 26.4343, -0.120865
928.829, 26.4342, -0.118108
950.508, 26.4342, -0.115414
972.693, 26.4342, -0.112782
995.396, 26.4342, -0.11021
1018.63, 26.4342, -0.107696
1042.4, 26.4342, -0.10524
1066.73, 26.4342, -0.10284
1091.63, 26.4342, -0.100494
1117.11, 26.4342, -0.0982021
1143.18, 26.4341, -0.0959624
1169.87, 26.4341, -0.0937737
1197.17, 26.4341, -0.0916349
1225.11, 26.4341, -0.089545
1253.71, 26.4341, -0.0875026
1282.97, 26.4341, -0.0855069
1312.91, 26.4341, -0.0835567
1343.56, 26.4341, -0.081651
1374.92, 26.4341, -0.0797887
1407.01, 26.4341, -0.0779689
1439.85, 26.4341, -0.0761906
1473.45, 26.4341, -0.0744529
1507.85, 26.4341, -0.0727548
1543.04, 26.4341, -0.0710954
1579.05, 26.434, -0.0694739
1615.91, 26.434, -0.0678894
1653.62, 26.434, -0.066341
1692.22, 26.434, -0.0648279
1731.72, 26.434, -0.0633493
1772.14, 26.434, -0.0619044
1813.5, 26.434, -0.0604925
1855.83, 26.434, -0.0591128
1899.14, 26.434, -0.0577646
1943.47, 26.434, -0.0564471
1988.83, 26.434, -0.0551597
2035.25, 26.434, -0.0539016
2082.75, 26.434, -0.0526722
2131.36, 26.434, -0.0514709
2181.11, 26.434, -0.050297
2232.02, 26.434, -0.0491498
2284.11, 26.434, -0.0480288
2337.42, 26.434, -0.0469334
2391.98, 26.434, -0.0458629
2447.81, 26.434, -0.0448169
2504.94, 26.434, -0.0437947
2563.41, 26.434, -0.0427959
2623.24, 26.434, -0.0418198
2684.46, 26.434, -0.040866
2747.12, 26.434, -0.0399339
2811.24, 26.434, -0.0390231
2876.85, 26.434, -0.0381331
2944, 26.434, -0.0372633
3012.71, 26.434, -0.0364134
3083.03, 26.434, -0.0355829
3154.99, 26.434, -0.0347714
3228.63, 26.434, -0.0339783
3303.99, 26.434, -0.0332033
3381.1, 26.434, -0.032446
3460.02, 26.434, -0.031706
3540.77, 26.434, -0.0309829
3623.42, 26.434, -0.0302762
3707.99, 26.434, -0.0295857
3794.53, 26.434, -0.0289109
3883.1, 26.434, -0.0282515
3973.73, 26.434, -0.0276071
4066.48, 26.434, -0.0269775
4161.39, 26.434, -0.0263622
4258.52, 26.434, -0.0257609
4357.91, 26.434, -0.0251734
4459.63, 26.434, -0.0245992
4563.72, 26.434, -0.0240382
4670.23, 26.434, -0.0234899
4779.24, 26.434, -0.0229541
4890.79, 26.434, -0.0224306
5004.94, 26.434, -0.021919
5121.76, 26.434, -0.0214191
5241.3, 26.434, -0.0209306
5363.63, 26.434, -0.0204532
5488.82, 26.434, -0.0199867
5616.93, 26.434, -0.0195308
5748.03, 26.434, -0.0190854
5882.19, 26.434, -0.0186501
6019.48, 26.434, -0.0182247
6159.98, 26.434, -0.017809
6303.75, 26.434, -0.0174029
6450.88, 26.434, -0.0170059
6601.45, 26.434, -0.0166181
6755.53, 26.4339, -0.016239
6913.2, 26.4339, -0.0158687
7074.56, 26.4339, -0.0155067
7239.68, 26.4339, -0.0151531
7408.66, 26.4339, -0.0148075
7581.58, 26.4339, -0.0144697
7758.53, 26.4339, -0.0141397
7939.62, 26.4339, -0.0138172
8124.93, 26.4339, -0.0135021
8314.57, 26.4339, -0.0131941
8508.63, 26.4339, -0.0128932
8707.22, 26.4339, -0.0125991
8910.45, 26.4339, -0.0123118
9118.43, 26.4339, -0.012031
9331.25, 26.4339, -0.0117566
9549.04, 26.4339, -0.0114884
9771.92, 26.4339, -0.0112264
10000, 26.4339, -0.0109703