>CIRCUIT DEFINITION
{({R0Q0}{C0}){R1}}

>MODEL PARAMETERS
R0: 45.5182529312355 Ohm | 4
Q0: 0.20575438737777713 Fs^(n-1) | 5
n0: 0.5  | 6
C0: 0.0014595303638707561 F | 7
R1: 27.100293349193663 Ohm | 8

>STATISTICAL DATA
Number of parameters: 5
Number of frequencies N_f: 101
Degrees of freedom: 197
Observation-to-parameter ratio: 40.4
Proportionally weighted reduced sum of squares S_v: 0.0847904

>IMPEDANCE DATA
Frequency (Hz), Re(Z) / Ohm, Im(Z) / Ohm
0.1, 74.8691, -5.00296
0.112202, 74.697, -4.0089
0.125893, 77.466, -4.58537
0.141254, 77.423, -4.42022
0.158489, 76.753, -9.85658
0.177828, 77.9316, -8.72505
0.199526, 74.4186, -6.96
0.223872, 74.6598, -7.85151
0.251189, 77.157, -8.14341
0.281838, 76.1297, -8.6941
0.316228, 75.2228, -11.8599
0.354813, 78.4779, -8.63436
0.398107, 72.8977, -10.1597
0.446684, 71.2523, -11.2596
0.501187, 71.2689, -11.6708
0.562341, 70.4328, -11.6063
0.630957, 70.3342, -13.4981
0.707946, 70.2697, -10.1019
0.794328, 63.2799, -12.8827
0.891251, 65.2959, -16.6716
1, 64.1005, -17.7686
1.12202, 63.6987, -20.1119
1.25893, 61.3081, -19.8334
1.41254, 59.5322, -20.8457
1.58489, 58.0368, -19.6994
1.77828, 54.6537, -20.9997
1.99526, 52.4195, -21.4846
2.23872, 50.3581, -21.7099
2.51189, 48.7971, -21.8968
2.81838, 46.4256, -21.4286
3.16228, 43.763, -21.0678
3.54813, 41.6473, -20.9324
3.98107, 40.9017, -19.4329
4.46684, 37.9847, -18.0921
5.01187, 36.5514, -18.801
5.62341, 33.4583, -17.7319
6.30957, 33.4293, -15.2895
7.07946, 32.963, -13.5436
7.94328, 31.7634, -11.9465
8.91251, 31.0018, -12.818
10, 29.4163, -10.3214
11.2202, 29.2412, -9.02778
12.5893, 28.4956, -8.75267
14.1254, 29.1758, -8.44844
15.8489, 27.8783, -7.15425
17.7828, 27.983, -6.03924
19.9526, 27.2486, -5.74995
22.3872, 28.2455, -6.15583
25.1189, 27.1306, -4.37372
28.1838, 27.2143, -4.12719
31.6228, 27.3507, -4.24306
35.4813, 27.1917, -3.31379
39.8107, 27.263, -3.20137
44.6684, 26.9962, -2.77068
50.1187, 26.9668, -2.67109
56.2341, 27.2482, -2.25485
63.0957, 26.7559, -1.88734
70.7946, 26.9473, -1.92987
79.4328, 26.9629, -1.66935
89.1251, 27.1293, -1.47184
100, 27.1421, -1.30861
112.202, 26.7529, -1.18325
125.893, 27.0005, -1.03328
141.254, 26.9337, -0.876382
158.489, 26.719, -0.924714
177.828, 26.8956, -0.701542
199.526, 27.0236, -0.73529
223.872, 26.6525, -0.647708
251.189, 26.5444, -0.567822
281.838, 27.0042, -0.475154
316.228, 26.9219, -0.47262
354.813, 26.6194, -0.437252
398.107, 26.5322, -0.376567
446.684, 26.6283, -0.355669
501.187, 26.9029, -0.34349
562.341, 26.5077, -0.337502
630.957, 26.4558, -0.267446
707.946, 26.7867, -0.253742
794.328, 26.7883, -0.231587
891.251, 26.3729, -0.191709
1000, 26.3741, -0.22097
1122.02, 26.6051, -0.202013
1258.93, 26.9116, -0.178998
1412.54, 26.8929, -0.202161
1584.89, 26.4563, -0.225489
1778.28, 26.524, -0.166909
1995.26, 26.5516, -0.193851
2238.72, 26.7156, -0.194804
2511.89, 26.9756, -0.211482
2818.38, 26.8219, -0.189937
3162.28, 26.7804, -0.232399
3548.13, 26.3882, -0.099099
3981.07, 26.387, -0.133769
4466.84, 26.7097, -0.253157
5011.87, 26.9901, -0.218187
5623.41, 26.67, -0.266591
6309.57, 26.5369, -0.190389
7079.46, 26.3936, -0.349399
7943.28, 26.4804, -0.254964
8912.51, 26.6033, -0.340387
10000, 26.706, -0.402106

>IMPEDANCE FIT
Frequency (Hz), Re(Z) / Ohm, Im(Z) / Ohm
0.1, 76.4577, -6.566
0.102334, 76.3993, -6.56362
0.104723, 76.3413, -6.56284
0.107167, 76.2836, -6.56368
0.109668, 76.2261, -6.56615
0.112228, 76.169, -6.57028
0.114847, 76.1121, -6.57607
0.117528, 76.0554, -6.58355
0.120271, 75.999, -6.59273
0.123078, 75.9427, -6.60364
0.125951, 75.8867, -6.6163
0.12889, 75.8308, -6.63071
0.131899, 75.775, -6.64691
0.134977, 75.7194, -6.66492
0.138128, 75.6639, -6.68475
0.141352, 75.6085, -6.70643
0.144651, 75.5531, -6.72998
0.148027, 75.4978, -6.75542
0.151482, 75.4425, -6.78278
0.155018, 75.3872, -6.81209
0.158636, 75.3319, -6.84336
0.162338, 75.2765, -6.87662
0.166127, 75.221, -6.9119
0.170005, 75.1654, -6.94923
0.173973, 75.1097, -6.98863
0.178033, 75.0538, -7.03013
0.182189, 74.9977, -7.07375
0.186441, 74.9413, -7.11954
0.190792, 74.8847, -7.1675
0.195246, 74.8279, -7.21768
0.199803, 74.7707, -7.27011
0.204466, 74.7131, -7.32481
0.209238, 74.6551, -7.38181
0.214122, 74.5967, -7.44115
0.21912, 74.5378, -7.50286
0.224234, 74.4785, -7.56697
0.229468, 74.4185, -7.63352
0.234823, 74.358, -7.70253
0.240304, 74.2968, -7.77403
0.245913, 74.2349, -7.84807
0.251653, 74.1722, -7.92467
0.257526, 74.1088, -8.00388
0.263537, 74.0446, -8.08571
0.269688, 73.9794, -8.17021
0.275983, 73.9133, -8.25741
0.282424, 73.8462, -8.34734
0.289016, 73.778, -8.44004
0.295762, 73.7087, -8.53554
0.302665, 73.6382, -8.63388
0.309729, 73.5665, -8.73508
0.316958, 73.4934, -8.83918
0.324356, 73.4189, -8.94621
0.331927, 73.3429, -9.05621
0.339674, 73.2654, -9.16919
0.347602, 73.1863, -9.28521
0.355715, 73.1054, -9.40427
0.364017, 73.0228, -9.52642
0.372514, 72.9383, -9.65167
0.381208, 72.8518, -9.78006
0.390106, 72.7632, -9.9116
0.399211, 72.6725, -10.0463
0.408529, 72.5795, -10.1843
0.418064, 72.4842, -10.3254
0.427821, 72.3864, -10.4698
0.437807, 72.286, -10.6174
0.448025, 72.183, -10.7683
0.458482, 72.0771, -10.9225
0.469183, 71.9683, -11.0799
0.480134, 71.8565, -11.2407
0.491341, 71.7415, -11.4047
0.502809, 71.6232, -11.572
0.514544, 71.5014, -11.7425
0.526554, 71.3761, -11.9163
0.538844, 71.2471, -12.0934
0.551421, 71.1142, -12.2736
0.564291, 70.9774, -12.4571
0.577462, 70.8363, -12.6437
0.59094, 70.691, -12.8334
0.604732, 70.5413, -13.0262
0.618847, 70.3869, -13.2221
0.633291, 70.2278, -13.4209
0.648072, 70.0637, -13.6226
0.663198, 69.8945, -13.8271
0.678677, 69.7201, -14.0344
0.694518, 69.5402, -14.2443
0.710728, 69.3547, -14.4568
0.727317, 69.1635, -14.6717
0.744292, 68.9663, -14.889
0.761664, 68.763, -15.1085
0.779442, 68.5534, -15.33
0.797634, 68.3374, -15.5535
0.816251, 68.1147, -15.7788
0.835302, 67.8853, -16.0056
0.854798, 67.6489, -16.2339
0.87475, 67.4054, -16.4634
0.895166, 67.1547, -16.6939
0.91606, 66.8965, -16.9252
0.937441, 66.6307, -17.1571
0.959321, 66.3573, -17.3893
0.981712, 66.076, -17.6217
1.00463, 65.7868, -17.8538
1.02807, 65.4895, -18.0855
1.05207, 65.184, -18.3164
1.07662, 64.8703, -18.5463
1.10175, 64.5482, -18.7749
1.12747, 64.2177, -19.0017
1.15378, 63.8787, -19.2266
1.18071, 63.5312, -19.4491
1.20827, 63.1752, -19.6688
1.23647, 62.8106, -19.8856
1.26533, 62.4375, -20.0988
1.29486, 62.0559, -20.3083
1.32509, 61.6659, -20.5135
1.35602, 61.2675, -20.7141
1.38766, 60.8608, -20.9098
1.42005, 60.4459, -21.1001
1.4532, 60.023, -21.2847
1.48712, 59.5922, -21.463
1.52183, 59.1537, -21.6348
1.55734, 58.7077, -21.7997
1.59369, 58.2545, -21.9573
1.63089, 57.7943, -22.1072
1.66896, 57.3274, -22.249
1.70791, 56.854, -22.3824
1.74777, 56.3746, -22.507
1.78857, 55.8894, -22.6226
1.83031, 55.3988, -22.7287
1.87303, 54.9033, -22.8252
1.91675, 54.4031, -22.9117
1.96149, 53.8988, -22.988
2.00727, 53.3909, -23.0538
2.05412, 52.8796, -23.109
2.10206, 52.3656, -23.1533
2.15112, 51.8494, -23.1866
2.20133, 51.3313, -23.2088
2.25271, 50.812, -23.2197
2.30529, 50.2919, -23.2194
2.3591, 49.7715, -23.2077
2.41416, 49.2515, -23.1846
2.4705, 48.7322, -23.1502
2.52817, 48.2142, -23.1045
2.58717, 47.6981, -23.0475
2.64756, 47.1843, -22.9794
2.70935, 46.6734, -22.9003
2.77259, 46.1657, -22.8103
2.8373, 45.6619, -22.7097
2.90353, 45.1623, -22.5987
2.9713, 44.6675, -22.4774
3.04065, 44.1778, -22.3462
3.11162, 43.6936, -22.2053
3.18424, 43.2154, -22.055
3.25856, 42.7435, -21.8956
3.33462, 42.2783, -21.7275
3.41245, 41.8201, -21.551
3.4921, 41.3692, -21.3665
3.5736, 40.9259, -21.1744
3.65701, 40.4904, -20.9749
3.74237, 40.063, -20.7686
3.82971, 39.6438, -20.5558
3.9191, 39.2332, -20.3369
4.01057, 38.8311, -20.1123
4.10418, 38.4378, -19.8824
4.19997, 38.0534, -19.6476
4.298, 37.6779, -19.4083
4.39832, 37.3114, -19.165
4.50098, 36.954, -18.9179
4.60603, 36.6057, -18.6675
4.71353, 36.2665, -18.4141
4.82355, 35.9364, -18.1582
4.93613, 35.6154, -17.9
5.05134, 35.3034, -17.64
5.16924, 35.0003, -17.3784
5.28989, 34.7061, -17.1157
5.41336, 34.4206, -16.852
5.53971, 34.1439, -16.5878
5.66901, 33.8757, -16.3233
5.80132, 33.616, -16.0587
5.93673, 33.3646, -15.7945
6.07529, 33.1213, -15.5307
6.21709, 32.8861, -15.2677
6.3622, 32.6587, -15.0057
6.51069, 32.4391, -14.7449
6.66265, 32.2269, -14.4854
6.81816, 32.0222, -14.2276
6.9773, 31.8246, -13.9715
7.14015, 31.6341, -13.7174
7.3068, 31.4504, -13.4653
7.47735, 31.2733, -13.2155
7.65187, 31.1028, -12.9681
7.83047, 30.9385, -12.7231
8.01323, 30.7804, -12.4808
8.20026, 30.6282, -12.2411
8.39166, 30.4818, -12.0043
8.58752, 30.341, -11.7703
8.78795, 30.2056, -11.5393
8.99307, 30.0754, -11.3113
9.20297, 29.9503, -11.0863
9.41777, 29.8301, -10.8645
9.63758, 29.7147, -10.6458
9.86252, 29.6039, -10.4304
10.0927, 29.4974, -10.2182
10.3283, 29.3953, -10.0092
10.5693, 29.2973, -9.80357
10.816, 29.2032, -9.60119
11.0685, 29.113, -9.4021
11.3268, 29.0264, -9.20632
11.5912, 28.9435, -9.01383
11.8617, 28.8639, -8.82464
12.1386, 28.7876, -8.63874
12.4219, 28.7146, -8.45611
12.7118, 28.6445, -8.27673
13.0085, 28.5774, -8.10059
13.3122, 28.5131, -7.92767
13.6229, 28.4515, -7.75794
13.9408, 28.3925, -7.59138
14.2662, 28.3361, -7.42796
14.5992, 28.282, -7.26764
14.9399, 28.2302, -7.1104
15.2886, 28.1806, -6.9562
15.6455, 28.1332, -6.805
16.0106, 28.0877, -6.65678
16.3843, 28.0443, -6.51148
16.7668, 28.0027, -6.36908
17.1581, 27.9629, -6.22954
17.5586, 27.9248, -6.0928
17.9684, 27.8884, -5.95884
18.3878, 27.8535, -5.82761
18.8169, 27.8202, -5.69907
19.2561, 27.7883, -5.57318
19.7056, 27.7578, -5.4499
20.1655, 27.7287, -5.32918
20.6362, 27.7008, -5.21098
21.1178, 27.6741, -5.09525
21.6107, 27.6486, -4.98197
22.1151, 27.6242, -4.87107
22.6313, 27.6009, -4.76253
23.1595, 27.5786, -4.6563
23.7001, 27.5573, -4.55233
24.2532, 27.537, -4.45059
24.8193, 27.5175, -4.35103
25.3986, 27.4989, -4.25362
25.9914, 27.4811, -4.15831
26.598, 27.4641, -4.06506
27.2188, 27.4479, -3.97383
27.8541, 27.4323, -3.88459
28.5043, 27.4175, -3.79729
29.1696, 27.4033, -3.7119
29.8504, 27.3898, -3.62837
30.5471, 27.3768, -3.54668
31.2601, 27.3644, -3.46678
31.9897, 27.3526, -3.38863
32.7363, 27.3413, -3.31221
33.5004, 27.3305, -3.23747
34.2823, 27.3202, -3.16439
35.0825, 27.3104, -3.09292
35.9013, 27.3009, -3.02304
36.7392, 27.2919, -2.95471
37.5967, 27.2833, -2.88789
38.4743, 27.2751, -2.82256
39.3723, 27.2673, -2.75869
40.2912, 27.2598, -2.69624
41.2316, 27.2526, -2.63518
42.194, 27.2458, -2.57549
43.1788, 27.2393, -2.51713
44.1866, 27.233, -2.46007
45.2179, 27.2271, -2.4043
46.2733, 27.2214, -2.34977
47.3533, 27.2159, -2.29647
48.4586, 27.2107, -2.24437
49.5896, 27.2058, -2.19343
50.7471, 27.201, -2.14364
51.9315, 27.1965, -2.09497
53.1436, 27.1922, -2.0474
54.384, 27.1881, -2.00089
55.6533, 27.1841, -1.95544
56.9523, 27.1803, -1.91101
58.2815, 27.1767, -1.86758
59.6418, 27.1733, -1.82513
61.0339, 27.17, -1.78364
62.4584, 27.1669, -1.74309
63.9162, 27.1639, -1.70345
65.4081, 27.161, -1.66471
66.9347, 27.1583, -1.62685
68.497, 27.1557, -1.58984
70.0957, 27.1532, -1.55367
71.7317, 27.1508, -1.51832
73.406, 27.1485, -1.48377
75.1193, 27.1464, -1.45
76.8726, 27.1443, -1.417
78.6668, 27.1423, -1.38475
80.5029, 27.1404, -1.35323
82.3819, 27.1386, -1.32242
84.3047, 27.1369, -1.29231
86.2724, 27.1352, -1.26289
88.286, 27.1337, -1.23413
90.3466, 27.1322, -1.20602
92.4553, 27.1307, -1.17856
94.6132, 27.1294, -1.15171
96.8215, 27.1281, -1.12548
99.0814, 27.1268, -1.09984
101.394, 27.1256, -1.07479
103.761, 27.1245, -1.0503
106.182, 27.1234, -1.02638
108.661, 27.1223, -1.00299
111.197, 27.1213, -0.980139
113.792, 27.1204, -0.957806
116.448, 27.1195, -0.935981
119.166, 27.1186, -0.914653
121.947, 27.1178, -0.893809
124.794, 27.117, -0.87344
127.706, 27.1163, -0.853534
130.687, 27.1155, -0.834082
133.737, 27.1149, -0.815072
136.859, 27.1142, -0.796494
140.053, 27.1136, -0.77834
143.322, 27.113, -0.760599
146.667, 27.1124, -0.743261
150.09, 27.1119, -0.726319
153.593, 27.1113, -0.709762
157.178, 27.1108, -0.693582
160.847, 27.1104, -0.677771
164.601, 27.1099, -0.66232
168.443, 27.1095, -0.647221
172.374, 27.1091, -0.632465
176.398, 27.1087, -0.618046
180.515, 27.1083, -0.603956
184.728, 27.1079, -0.590186
189.04, 27.1076, -0.57673
193.452, 27.1073, -0.56358
197.967, 27.1069, -0.550731
202.588, 27.1066, -0.538174
207.316, 27.1064, -0.525903
212.155, 27.1061, -0.513912
217.107, 27.1058, -0.502194
222.174, 27.1056, -0.490743
227.36, 27.1053, -0.479553
232.666, 27.1051, -0.468618
238.097, 27.1049, -0.457932
243.654, 27.1047, -0.44749
249.341, 27.1045, -0.437286
255.161, 27.1043, -0.427314
261.116, 27.1041, -0.41757
267.211, 27.1039, -0.408048
273.447, 27.1038, -0.398743
279.83, 27.1036, -0.38965
286.361, 27.1035, -0.380764
293.045, 27.1033, -0.372081
299.884, 27.1032, -0.363596
306.884, 27.1031, -0.355305
314.047, 27.1029, -0.347202
321.376, 27.1028, -0.339284
328.877, 27.1027, -0.331547
336.553, 27.1026, -0.323986
344.409, 27.1025, -0.316597
352.447, 27.1024, -0.309377
360.673, 27.1023, -0.302322
369.092, 27.1022, -0.295427
377.706, 27.1021, -0.28869
386.522, 27.102, -0.282106
395.544, 27.102, -0.275672
404.776, 27.1019, -0.269385
414.223, 27.1018, -0.263241
423.891, 27.1017, -0.257238
433.785, 27.1017, -0.251371
443.91, 27.1016, -0.245639
454.271, 27.1016, -0.240036
464.873, 27.1015, -0.234562
475.724, 27.1014, -0.229212
486.827, 27.1014, -0.223985
498.19, 27.1013, -0.218877
509.818, 27.1013, -0.213885
521.717, 27.1013, -0.209007
533.894, 27.1012, -0.20424
546.355, 27.1012, -0.199582
559.107, 27.1011, -0.19503
572.157, 27.1011, -0.190582
585.511, 27.1011, -0.186235
599.177, 27.101, -0.181988
613.162, 27.101, -0.177837
627.473, 27.101, -0.173781
642.119, 27.1009, -0.169818
657.106, 27.1009, -0.165945
672.443, 27.1009, -0.16216
688.138, 27.1008, -0.158462
704.199, 27.1008, -0.154848
720.635, 27.1008, -0.151316
737.455, 27.1008, -0.147865
754.667, 27.1008, -0.144493
772.281, 27.1007, -0.141197
790.307, 27.1007, -0.137977
808.752, 27.1007, -0.13483
827.629, 27.1007, -0.131755
846.946, 27.1007, -0.12875
866.714, 27.1006, -0.125813
886.943, 27.1006, -0.122944
907.645, 27.1006, -0.12014
928.829, 27.1006, -0.1174
950.508, 27.1006, -0.114722
972.693, 27.1006, -0.112106
995.396, 27.1006, -0.109549
1018.63, 27.1005, -0.10705
1042.4, 27.1005, -0.104609
1066.73, 27.1005, -0.102223
1091.63, 27.1005, -0.0998914
1117.11, 27.1005, -0.0976131
1143.18, 27.1005, -0.0953867
1169.87, 27.1005, -0.0932112
1197.17, 27.1005, -0.0910853
1225.11, 27.1005, -0.0890078
1253.71, 27.1005, -0.0869778
1282.97, 27.1005, -0.084994
1312.91, 27.1004, -0.0830555
1343.56, 27.1004, -0.0811612
1374.92, 27.1004, -0.0793101
1407.01, 27.1004, -0.0775012
1439.85, 27.1004, -0.0757336
1473.45, 27.1004, -0.0740063
1507.85, 27.1004, -0.0723184
1543.04, 27.1004, -0.070669
1579.05, 27.1004, -0.0690572
1615.91, 27.1004, -0.0674821
1653.62, 27.1004, -0.065943
1692.22, 27.1004, -0.064439
1731.72, 27.1004, -0.0629693
1772.14, 27.1004, -0.0615331
1813.5, 27.1004, -0.0601297
1855.83, 27.1004, -0.0587582
1899.14, 27.1004, -0.0574181
1943.47, 27.1004, -0.0561085
1988.83, 27.1004, -0.0548288
2035.25, 27.1004, -0.0535783
2082.75, 27.1004, -0.0523563
2131.36, 27.1004, -0.0511622
2181.11, 27.1003, -0.0499953
2232.02, 27.1003, -0.048855
2284.11, 27.1003, -0.0477407
2337.42, 27.1003, -0.0466518
2391.98, 27.1003, -0.0455878
2447.81, 27.1003, -0.0445481
2504.94, 27.1003, -0.043532
2563.41, 27.1003, -0.0425391
2623.24, 27.1003, -0.0415689
2684.46, 27.1003, -0.0406208
2747.12, 27.1003, -0.0396943
2811.24, 27.1003, -0.038789
2876.85, 27.1003, -0.0379043
2944, 27.1003, -0.0370398
3012.71, 27.1003, -0.036195
3083.03, 27.1003, -0.0353695
3154.99, 27.1003, -0.0345628
3228.63, 27.1003, -0.0337745
3303.99, 27.1003, -0.0330041
3381.1, 27.1003, -0.0322514
3460.02, 27.1003, -0.0315158
3540.77, 27.1003, -0.030797
3623.42, 27.1003, -0.0300946
3707.99, 27.1003, -0.0294082
3794.53, 27.1003, -0.0287375
3883.1, 27.1003, -0.028082
3973.73, 27.1003, -0.0274415
4066.48, 27.1003, -0.0268156
4161.39, 27.1003, -0.026204
4258.52, 27.1003, -0.0256064
4357.91, 27.1003, -0.0250224
4459.63, 27.1003, -0.0244516
4563.72, 27.1003, -0.023894
4670.23, 27.1003, -0.023349
4779.24, 27.1003, -0.0228165
4890.79, 27.1003, -0.0222961
5004.94, 27.1003, -0.0217875
5121.76, 27.1003, -0.0212906
5241.3, 27.1003, -0.020805
5363.63, 27.1003, -0.0203305
5488.82, 27.1003, -0.0198668
5616.93, 27.1003, -0.0194137
5748.03, 27.1003, -0.0189709
5882.19, 27.1003, -0.0185382
6019.48, 27.1003, -0.0181154
6159.98, 27.1003, -0.0177022
6303.75, 27.1003, -0.0172985
6450.88, 27.1003, -0.0169039
6601.45, 27.1003, -0.0165184
6755.53, 27.1003, -0.0161416
6913.2, 27.1003, -0.0157735
7074.56, 27.1003, -0.0154137
7239.68, 27.1003, -0.0150622
7408.66, 27.1003, -0.0147186
7581.58, 27.1003, -0.0143829
7758.53, 27.1003, -0.0140549
7939.62, 27.1003, -0.0137343
8124.93, 27.1003, -0.0134211
8314.57, 27.1003, -0.013115
8508.63, 27.1003, -0.0128158
8707.22, 27.1003, -0.0125235
8910.45, 27.1003, -0.0122379
9118.43, 27.1003, -0.0119588
9331.25, 27.1003, -0.011686
9549.04, 27.1003, -0.0114195
9771.92, 27.1003, -0.011159
10000, 27.1003, -0.0109045