>CIRCUIT DEFINITION
{({R0Q0}{C0}){L0}}

>MODEL PARAMETERS
R0: 45.969251314452535 Ohm | 0
Q0: 0.00023260525655570332 Fs^(n-1) | 1
n0: 0.587054445120336  | 2
C0: 3.5197889167809543e-09 F | 3
L0: 4.491159689137066e-06 H | 4

>STATISTICAL DATA
Number of parameters: 5
Number of frequencies N_f: 181
Degrees of freedom: 357
Observation-to-parameter ratio: 72.4
Proportionally weighted reduced sum of squares S_v: 1887.35

>IMPEDANCE DATA
Frequency (Hz), Re(Z) / Ohm, Im(Z) / Ohm
1, 914.218, -1152.37
1.07978, 882.919, -1106.37
1.16591, 855.542, -1067.23
1.25893, 813.942, -1010.06
1.35936, 781.702, -970.889
1.4678, 754.23, -929.325
1.58489, 724.554, -885.38
1.71133, 691.344, -847.526
1.84785, 664.224, -814.639
1.99526, 640.49, -777.312
2.15443, 610.672, -742.638
2.32631, 587.668, -714.322
2.51189, 564.894, -680.268
2.71227, 539.352, -653.195
2.92864, 519.864, -622.794
3.16228, 496.556, -598.226
3.41455, 478.764, -570.366
3.68694, 458.418, -548.145
3.98107, 441.387, -525.817
4.29866, 420.634, -499.895
4.64159, 403.995, -477.504
5.01187, 388.457, -455.492
5.4117, 373.261, -435.69
5.84341, 358.595, -416.75
6.30957, 344.558, -398.691
6.81292, 331.52, -381.952
7.35642, 317.655, -365.282
7.94328, 304.751, -349.1
8.57696, 293.1, -331.913
9.26119, 281.46, -318.827
10, 270.747, -303.238
10.7978, 261.914, -291.041
11.6591, 252.099, -278.309
12.5893, 241.968, -264.595
13.5936, 233.323, -253.333
14.678, 224.54, -242.646
15.8489, 215.866, -230.014
17.1133, 209.529, -220.937
18.4785, 202.574, -211.618
19.9526, 195.107, -201.829
21.5443, 187.995, -191.854
23.2631, 181.527, -183.363
25.1189, 175.382, -174.121
27.1227, 169.724, -166.773
29.2864, 164.568, -159.076
31.6228, 158.742, -151.077
34.1455, 154.68, -145.512
36.8694, 150.057, -138.576
39.8107, 145.693, -132.54
42.9866, 140.866, -125.909
46.4159, 136.414, -119.823
50.1187, 132.59, -114.346
54.117, 129.21, -109.731
58.4341, 125.657, -104.753
63.0957, 122.134, -99.5659
68.1292, 118.887, -95.1946
73.5642, 116.333, -91.6902
79.4328, 113.363, -87.4109
85.7696, 110.563, -83.4223
92.6119, 108.92, -80.4352
100, 105.25, -76.284
107.978, 102.586, -72.6086
116.591, 100.582, -69.9669
125.893, 97.9713, -66.4848
135.936, 95.9453, -63.6786
146.78, 93.9249, -60.9129
158.489, 92.0391, -58.5234
171.133, 89.7824, -55.3623
184.785, 88.3182, -53.5051
199.526, 86.2822, -50.8355
215.443, 84.6397, -48.665
232.631, 83.1469, -46.7121
251.189, 81.3097, -44.2949
271.227, 80.1308, -42.7239
292.864, 78.6021, -40.7754
316.228, 77.3797, -39.1607
341.455, 76.1126, -37.5488
368.695, 74.784, -35.8493
398.107, 73.4695, -34.1199
429.866, 72.4715, -32.8404
464.159, 71.2271, -31.258
501.187, 70.1753, -29.9125
541.17, 69.3317, -28.8409
584.341, 68.2318, -27.4728
630.957, 67.3867, -26.4096
681.292, 66.5386, -25.3336
735.642, 65.6988, -24.2434
794.328, 65.0199, -23.188
857.696, 64.5824, -22.4307
926.119, 63.1725, -21.1777
1000, 62.4519, -20.2915
1079.78, 61.893, -19.6215
1165.91, 61.0997, -18.6624
1258.93, 60.5146, -17.9737
1359.36, 59.8878, -17.2078
1467.8, 59.3021, -16.5086
1584.89, 58.6961, -15.8044
1711.33, 58.1631, -15.1756
1847.85, 57.6795, -14.6143
1995.26, 57.0522, -13.8708
2154.43, 56.6867, -13.4524
2326.31, 56.1096, -12.7735
2511.89, 55.7417, -12.3353
2712.27, 55.3093, -11.8299
2928.64, 54.8268, -11.2909
3162.28, 54.4204, -10.7871
3414.55, 54.0544, -10.3763
3686.95, 53.6888, -9.985
3981.07, 53.3559, -9.60607
4298.66, 52.992, -9.15497
4641.59, 52.5858, -8.69346
5011.87, 52.3338, -8.4043
5411.7, 52.0128, -8.02365
5843.41, 51.7181, -7.6499
6309.57, 51.4655, -7.33756
6812.92, 51.2071, -7.06225
7356.42, 50.9508, -6.72582
7943.28, 50.7025, -6.45471
8576.96, 50.4241, -6.1075
9261.19, 50.1901, -5.80526
10000, 49.9807, -5.53633
10797.8, 49.694, -5.4844
11659.1, 49.4452, -5.21627
12589.3, 49.2574, -4.98481
13593.6, 49.0846, -4.78972
14678, 48.922, -4.57821
15848.9, 48.7734, -4.38605
17113.3, 48.6108, -4.1626
18478.5, 48.4209, -3.9923
19952.6, 48.3136, -3.79113
21544.3, 48.1621, -3.57489
23263.1, 48.0121, -3.44297
25118.9, 47.9324, -3.21385
27122.7, 47.7625, -3.07104
29286.4, 47.6771, -2.8814
31622.8, 47.563, -2.73531
34145.5, 47.4426, -2.55744
36869.4, 47.3637, -2.38381
39810.7, 47.2714, -2.20884
42986.6, 47.1873, -2.06837
46415.9, 47.1172, -1.94686
50118.7, 47.0068, -1.79197
54117, 46.9339, -1.59982
58434.1, 46.8091, -1.48879
63095.7, 46.784, -1.32756
68129.2, 46.6727, -1.20931
73564.2, 46.6461, -1.07292
79432.8, 46.5738, -0.916869
85769.6, 46.4997, -0.844598
92611.9, 46.4162, -0.656308
100000, 47.4347, -0.429471
107978, 46.3411, -0.584668
116591, 46.0498, -0.455578
125893, 45.9561, -0.349049
135936, 45.844, -0.274528
146780, 45.8337, -0.188682
158489, 45.7159, -0.00504135
171133, 45.8048, -0.0159722
184785, 45.8971, -1.37519
199526, 44.9747, -1.44743
215443, 44.8524, -1.4448
232630, 44.4524, -1.50677
251189, 43.9121, -1.43083
271227, 43.4522, -1.40824
292864, 42.8142, -1.73059
316228, 44.5318, -3.07743
341455, 44.2169, -3.45314
368694, 43.7659, -3.90147
398107, 43.1701, -4.53783
429866, 39.922, -3.98237
464159, 41.706, -5.43447
501187, 40.293, -6.24925
541170, 38.5224, -6.64077
584341, 36.3462, -7.6115
630957, 33.3657, -8.02371
681292, 29.2691, -7.60502
735642, 24.7454, -6.10752
794328, 20.2508, -2.95588
857696, 16.2004, 1.25145
926119, 12.7357, 5.63189
1e+06, 8.33907, 11.5614

>IMPEDANCE FIT
Frequency (Hz), Re(Z) / Ohm, Im(Z) / Ohm
1, 928.847, -1164.67
1.02807, 914.613, -1145.9
1.05693, 900.608, -1127.42
1.08661, 886.829, -1109.25
1.11711, 873.272, -1091.36
1.14847, 859.933, -1073.77
1.18071, 846.81, -1056.46
1.21386, 833.898, -1039.42
1.24794, 821.195, -1022.67
1.28297, 808.696, -1006.18
1.31899, 796.399, -989.956
1.35602, 784.3, -973.996
1.39408, 772.396, -958.293
1.43322, 760.684, -942.844
1.47345, 749.16, -927.643
1.51482, 737.823, -912.687
1.55734, 726.668, -897.973
1.60106, 715.694, -883.496
1.64601, 704.896, -869.252
1.69222, 694.272, -855.238
1.73973, 683.819, -841.449
1.78857, 673.535, -827.883
1.83878, 663.417, -814.536
1.8904, 653.462, -801.404
1.94347, 643.668, -788.484
1.99803, 634.031, -775.772
2.05412, 624.55, -763.265
2.11178, 615.221, -750.959
2.17107, 606.043, -738.852
2.23202, 597.013, -726.94
2.29468, 588.129, -715.22
2.3591, 579.387, -703.69
2.42532, 570.787, -692.345
2.49341, 562.325, -681.183
2.56341, 554, -670.2
2.63537, 545.809, -659.395
2.70935, 537.75, -648.765
2.78541, 529.821, -638.305
2.86361, 522.02, -628.014
2.944, 514.344, -617.889
3.02665, 506.793, -607.928
3.11162, 499.363, -598.127
3.19897, 492.053, -588.484
3.28877, 484.86, -578.996
3.3811, 477.784, -569.661
3.47602, 470.822, -560.477
3.5736, 463.972, -551.441
3.67392, 457.232, -542.551
3.77706, 450.601, -533.804
3.8831, 444.077, -525.198
3.99211, 437.658, -516.73
4.10418, 431.343, -508.4
4.2194, 425.129, -500.203
4.33785, 419.016, -492.139
4.45963, 413.001, -484.204
4.58482, 407.083, -476.398
4.71353, 401.261, -468.718
4.84586, 395.532, -461.161
4.9819, 389.896, -453.726
5.12176, 384.351, -446.411
5.26554, 378.895, -439.214
5.41336, 373.527, -432.133
5.56533, 368.246, -425.166
5.72157, 363.049, -418.311
5.88219, 357.937, -411.567
6.04732, 352.907, -404.932
6.21709, 347.958, -398.404
6.39162, 343.089, -391.981
6.57106, 338.298, -385.661
6.75553, 333.584, -379.444
6.94518, 328.947, -373.326
7.14015, 324.384, -367.307
7.3406, 319.895, -361.386
7.54667, 315.478, -355.559
7.75853, 311.133, -349.827
7.97634, 306.857, -344.187
8.20026, 302.651, -338.638
8.43047, 298.512, -333.179
8.66714, 294.44, -327.807
8.91045, 290.434, -322.522
9.1606, 286.492, -317.323
9.41777, 282.614, -312.207
9.68215, 278.798, -307.173
9.95396, 275.044, -302.221
10.2334, 271.35, -297.349
10.5207, 267.716, -292.555
10.816, 264.14, -287.838
11.1197, 260.623, -283.198
11.4318, 257.161, -278.632
11.7528, 253.756, -274.14
12.0827, 250.406, -269.72
12.4219, 247.109, -265.372
12.7706, 243.866, -261.094
13.1291, 240.675, -256.885
13.4977, 237.535, -252.743
13.8766, 234.446, -248.668
14.2662, 231.407, -244.659
14.6667, 228.417, -240.715
15.0785, 225.475, -236.834
15.5018, 222.581, -233.016
15.9369, 219.733, -229.26
16.3843, 216.931, -225.563
16.8443, 214.174, -221.927
17.3172, 211.462, -218.349
17.8033, 208.793, -214.829
18.3031, 206.167, -211.366
18.8169, 203.584, -207.958
19.3452, 201.043, -204.605
19.8883, 198.542, -201.307
20.4466, 196.082, -198.062
21.0206, 193.661, -194.868
21.6107, 191.279, -191.727
22.2174, 188.936, -188.636
22.8411, 186.631, -185.595
23.4823, 184.362, -182.603
24.1416, 182.131, -179.659
24.8193, 179.935, -176.763
25.5161, 177.775, -173.913
26.2324, 175.649, -171.109
26.9688, 173.558, -168.351
27.7259, 171.5, -165.637
28.5043, 169.476, -162.967
29.3045, 167.484, -160.339
30.1271, 165.525, -157.754
30.9729, 163.597, -155.211
31.8424, 161.7, -152.709
32.7363, 159.833, -150.247
33.6553, 157.997, -147.825
34.6002, 156.19, -145.442
35.5715, 154.413, -143.097
36.5701, 152.664, -140.791
37.5967, 150.943, -138.521
38.6522, 149.25, -136.288
39.7373, 147.585, -134.091
40.8529, 145.946, -131.929
41.9997, 144.333, -129.802
43.1788, 142.747, -127.71
44.391, 141.186, -125.651
45.6372, 139.65, -123.626
46.9183, 138.14, -121.633
48.2355, 136.653, -119.672
49.5896, 135.19, -117.743
50.9818, 133.751, -115.845
52.413, 132.336, -113.977
53.8844, 130.943, -112.14
55.3971, 129.572, -110.332
56.9523, 128.224, -108.554
58.5511, 126.897, -106.804
60.1948, 125.592, -105.082
61.8847, 124.307, -103.388
63.622, 123.044, -101.722
65.4081, 121.8, -100.082
67.2443, 120.577, -98.4688
69.132, 119.374, -96.8815
71.0728, 118.19, -95.3198
73.068, 117.025, -93.7834
75.1193, 115.879, -92.2717
77.2281, 114.751, -90.7844
79.3962, 113.641, -89.321
81.6251, 112.55, -87.8813
83.9166, 111.476, -86.4648
86.2724, 110.419, -85.0711
88.6943, 109.379, -83.6999
91.1843, 108.356, -82.3508
93.7441, 107.35, -81.0235
96.3758, 106.36, -79.7175
99.0814, 105.385, -78.4327
101.863, 104.427, -77.1685
104.723, 103.484, -75.9247
107.662, 102.556, -74.701
110.685, 101.643, -73.4971
113.792, 100.744, -72.3125
116.987, 99.8606, -71.1471
120.271, 98.9911, -70.0004
123.647, 98.1356, -68.8723
127.118, 97.2939, -67.7623
130.687, 96.4657, -66.6703
134.356, 95.6509, -65.5958
138.128, 94.8492, -64.5387
142.005, 94.0604, -63.4986
145.992, 93.2844, -62.4753
150.09, 92.5208, -61.4686
154.304, 91.7696, -60.478
158.636, 91.0305, -59.5034
163.089, 90.3032, -58.5446
167.668, 89.5877, -57.6012
172.374, 88.8838, -56.6731
177.214, 88.1911, -55.7599
182.189, 87.5097, -54.8614
187.303, 86.8392, -53.9774
192.561, 86.1795, -53.1077
197.967, 85.5305, -52.2521
203.525, 84.8919, -51.4102
209.238, 84.2636, -50.5819
215.112, 83.6454, -49.767
221.151, 83.0372, -48.9652
227.36, 82.4387, -48.1764
233.742, 81.85, -47.4003
240.304, 81.2707, -46.6367
247.05, 80.7007, -45.8854
253.986, 80.1399, -45.1463
261.116, 79.5882, -44.4191
268.446, 79.0453, -43.7036
275.983, 78.5112, -42.9997
283.73, 77.9857, -42.3071
291.696, 77.4687, -41.6257
299.884, 76.96, -40.9553
308.303, 76.4595, -40.2958
316.958, 75.967, -39.6468
325.856, 75.4825, -39.0084
335.004, 75.0058, -38.3803
344.409, 74.5367, -37.7623
354.077, 74.0753, -37.1542
364.017, 73.6212, -36.556
374.237, 73.1745, -35.9675
384.743, 72.7349, -35.3884
395.544, 72.3025, -34.8187
406.648, 71.877, -34.2582
418.064, 71.4583, -33.7068
429.8, 71.0464, -33.1643
441.866, 70.6411, -32.6305
454.271, 70.2424, -32.1054
467.023, 69.8501, -31.5887
480.134, 69.464, -31.0804
493.613, 69.0842, -30.5803
507.471, 68.7106, -30.0883
521.717, 68.3429, -29.6042
536.363, 67.9811, -29.1279
551.421, 67.6252, -28.6594
566.901, 67.275, -28.1984
582.815, 66.9305, -27.7449
599.177, 66.5914, -27.2987
615.998, 66.2579, -26.8597
633.291, 65.9297, -26.4278
651.069, 65.6068, -26.003
669.347, 65.2891, -25.5849
688.138, 64.9765, -25.1737
707.456, 64.6689, -24.7691
727.317, 64.3663, -24.371
747.735, 64.0685, -23.9794
768.726, 63.7755, -23.5941
790.307, 63.4873, -23.2151
812.493, 63.2037, -22.8422
835.302, 62.9246, -22.4754
858.752, 62.65, -22.1144
882.86, 62.3799, -21.7594
907.645, 62.1141, -21.41
933.125, 61.8525, -21.0664
959.321, 61.5952, -20.7283
986.252, 61.342, -20.3957
1013.94, 61.0929, -20.0685
1042.4, 60.8477, -19.7466
1071.67, 60.6065, -19.4299
1101.75, 60.3692, -19.1184
1132.68, 60.1357, -18.8119
1164.48, 59.906, -18.5104
1197.17, 59.6799, -18.2138
1230.78, 59.4575, -17.922
1265.33, 59.2387, -17.635
1300.85, 59.0233, -17.3526
1337.37, 58.8115, -17.0748
1374.92, 58.603, -16.8015
1413.52, 58.3978, -16.5327
1453.2, 58.196, -16.2683
1493.99, 57.9974, -16.0081
1535.93, 57.802, -15.7522
1579.05, 57.6097, -15.5005
1623.38, 57.4205, -15.2529
1668.96, 57.2344, -15.0093
1715.81, 57.0512, -14.7697
1763.98, 56.871, -14.534
1813.5, 56.6936, -14.3022
1864.41, 56.5191, -14.0741
1916.75, 56.3474, -13.8498
1970.56, 56.1784, -13.6292
2025.88, 56.0122, -13.4122
2082.75, 55.8486, -13.1987
2141.22, 55.6876, -12.9887
2201.33, 55.5293, -12.7822
2263.13, 55.3734, -12.579
2326.66, 55.22, -12.3792
2391.98, 55.0691, -12.1827
2459.13, 54.9206, -11.9895
2528.17, 54.7745, -11.7994
2599.14, 54.6307, -11.6124
2672.11, 54.4892, -11.4285
2747.12, 54.35, -11.2477
2824.24, 54.213, -11.0699
2903.53, 54.0782, -10.895
2985.04, 53.9455, -10.723
3068.84, 53.815, -10.5539
3154.99, 53.6865, -10.3875
3243.56, 53.5601, -10.224
3334.62, 53.4357, -10.0631
3428.23, 53.3133, -9.90496
3524.47, 53.1928, -9.74945
3623.42, 53.0743, -9.59654
3725.14, 52.9576, -9.44619
3829.71, 52.8428, -9.29836
3937.23, 52.7299, -9.15302
4047.76, 52.6187, -9.01013
4161.39, 52.5093, -8.86964
4278.21, 52.4016, -8.73153
4398.32, 52.2956, -8.59576
4521.79, 52.1913, -8.4623
4648.73, 52.0887, -8.3311
4779.24, 51.9877, -8.20214
4913.41, 51.8883, -8.07538
5051.34, 51.7904, -7.9508
5193.15, 51.6941, -7.82835
5338.94, 51.5994, -7.70801
5488.82, 51.5061, -7.58975
5642.91, 51.4143, -7.47354
5801.32, 51.3239, -7.35934
5964.18, 51.235, -7.24713
6131.62, 51.1475, -7.13689
6303.75, 51.0613, -7.02858
6480.72, 50.9765, -6.92217
6662.65, 50.893, -6.81764
6849.7, 50.8109, -6.71497
7041.99, 50.73, -6.61412
7239.68, 50.6504, -6.51508
7442.92, 50.572, -6.41781
7651.87, 50.4949, -6.3223
7866.68, 50.4189, -6.22852
8087.52, 50.3442, -6.13645
8314.57, 50.2706, -6.04606
8547.98, 50.1981, -5.95734
8787.95, 50.1268, -5.87026
9034.66, 50.0565, -5.7848
9288.29, 49.9874, -5.70094
9549.04, 49.9193, -5.61866
9817.12, 49.8523, -5.53794
10092.7, 49.7862, -5.45876
10376.1, 49.7212, -5.38111
10667.3, 49.6572, -5.30496
10966.8, 49.5942, -5.2303
11274.7, 49.5321, -5.15711
11591.2, 49.471, -5.08537
11916.6, 49.4107, -5.01507
12251.1, 49.3514, -4.94619
12595.1, 49.293, -4.87872
12948.6, 49.2355, -4.81264
13312.2, 49.1788, -4.74793
13685.9, 49.1229, -4.68459
14070.1, 49.0679, -4.6226
14465.1, 49.0137, -4.56194
14871.2, 48.9602, -4.50261
15288.6, 48.9076, -4.44458
15717.8, 48.8557, -4.38786
16159.1, 48.8046, -4.33242
16612.7, 48.7541, -4.27826
17079.1, 48.7044, -4.22537
17558.6, 48.6554, -4.17373
18051.5, 48.6071, -4.12334
18558.3, 48.5595, -4.07418
19079.2, 48.5125, -4.02625
19614.9, 48.4662, -3.97955
20165.5, 48.4205, -3.93405
20731.6, 48.3753, -3.88976
21313.6, 48.3308, -3.84667
21912, 48.2869, -3.80477
22527.1, 48.2435, -3.76405
23159.5, 48.2007, -3.72451
23809.7, 48.1584, -3.68615
24478.1, 48.1167, -3.64895
25165.3, 48.0754, -3.61292
25871.7, 48.0347, -3.57804
26598, 47.9944, -3.54433
27344.7, 47.9546, -3.51176
28112.4, 47.9152, -3.48035
28901.6, 47.8762, -3.45009
29713, 47.8377, -3.42097
30547.1, 47.7995, -3.39299
31404.7, 47.7618, -3.36616
32286.3, 47.7243, -3.34048
33192.7, 47.6873, -3.31593
34124.5, 47.6505, -3.29254
35082.5, 47.6141, -3.27028
36067.3, 47.578, -3.24917
37079.9, 47.5421, -3.22921
38120.8, 47.5065, -3.21039
39191, 47.4711, -3.19273
40291.2, 47.4359, -3.17622
41422.3, 47.4009, -3.16087
42585.2, 47.3661, -3.14668
43780.7, 47.3315, -3.13366
45009.8, 47.2969, -3.12181
46273.3, 47.2625, -3.11113
47572.4, 47.2281, -3.10164
48907.9, 47.1938, -3.09333
50280.9, 47.1596, -3.08621
51692.4, 47.1253, -3.08029
53143.6, 47.091, -3.07558
54635.5, 47.0566, -3.07208
56169.3, 47.0222, -3.0698
57746.2, 46.9876, -3.06875
59367.3, 46.9529, -3.06894
61033.9, 46.918, -3.07037
62747.3, 46.8829, -3.07305
64508.8, 46.8476, -3.077
66319.8, 46.8119, -3.08222
68181.6, 46.7759, -3.08872
70095.7, 46.7396, -3.09651
72063.5, 46.7028, -3.1056
74086.6, 46.6655, -3.116
76166.4, 46.6278, -3.12772
78304.7, 46.5895, -3.14077
80502.9, 46.5506, -3.15515
82762.9, 46.511, -3.17088
85086.3, 46.4707, -3.18797
87475, 46.4297, -3.20642
89930.7, 46.3877, -3.22625
92455.3, 46.3449, -3.24745
95050.8, 46.3011, -3.27004
97719.2, 46.2563, -3.29402
100463, 46.2104, -3.31941
103283, 46.1632, -3.34619
106182, 46.1148, -3.37439
109163, 46.065, -3.40399
112228, 46.0138, -3.43501
115378, 45.961, -3.46743
118617, 45.9066, -3.50126
121947, 45.8504, -3.5365
125371, 45.7924, -3.57313
128890, 45.7324, -3.61115
132509, 45.6703, -3.65055
136229, 45.606, -3.69131
140053, 45.5394, -3.73341
143985, 45.4704, -3.77684
148027, 45.3987, -3.82156
152183, 45.3242, -3.86755
156455, 45.2469, -3.91477
160847, 45.1665, -3.96319
165362, 45.0829, -4.01275
170005, 44.9959, -4.06341
174777, 44.9052, -4.11511
179684, 44.8109, -4.16779
184728, 44.7125, -4.22136
189914, 44.61, -4.27576
195246, 44.5031, -4.33089
200727, 44.3916, -4.38665
206362, 44.2754, -4.44292
212155, 44.154, -4.4996
218111, 44.0274, -4.55654
224234, 43.8952, -4.6136
230529, 43.7572, -4.67061
237001, 43.6132, -4.72741
243654, 43.4628, -4.7838
250494, 43.3059, -4.83957
257526, 43.142, -4.8945
264756, 42.971, -4.94835
272188, 42.7924, -5.00084
279830, 42.6061, -5.05169
287685, 42.4118, -5.1006
295762, 42.209, -5.14724
304065, 41.9975, -5.19124
312601, 41.777, -5.23223
321376, 41.5471, -5.2698
330399, 41.3076, -5.30351
339674, 41.0582, -5.33289
349210, 40.7985, -5.35746
359013, 40.5281, -5.37669
369092, 40.247, -5.39001
379453, 39.9546, -5.39685
390106, 39.6509, -5.39657
401057, 39.3354, -5.38852
412316, 39.008, -5.372
423891, 38.6683, -5.3463
435791, 38.3163, -5.31066
448025, 37.9518, -5.26427
460603, 37.5744, -5.20633
473533, 37.1843, -5.13596
486827, 36.7811, -5.05227
500494, 36.3649, -4.95436
514544, 35.9355, -4.84126
528989, 35.4932, -4.71201
543840, 35.0378, -4.56559
559107, 34.5694, -4.401
574803, 34.0883, -4.21718
590940, 33.5945, -4.01309
607529, 33.0883, -3.78764
624584, 32.5701, -3.53977
642119, 32.0401, -3.26838
660145, 31.4988, -2.9724
678677, 30.9465, -2.65073
697730, 30.3838, -2.30231
717317, 29.8112, -1.92607
737455, 29.2294, -1.52097
758158, 28.639, -1.08598
779442, 28.0406, -0.620096
801323, 27.435, -0.122358
823819, 26.8231, 0.408175
846946, 26.2055, 0.972403
870722, 25.5833, 1.57119
895166, 24.9572, 2.20534
920297, 24.3281, 2.87564
946132, 23.697, 3.58281
972693, 23.0649, 4.32752
1e+06, 22.4326, 5.11041